*FILE_COMMENT ""
*FILE_MD5 ""
*FILE_MEMO ""
*FILE_OPERATOR "Administrator"
*FILE_PACKAGE_NAME "Package_BB"
*FILE_PART_ID "GeneralMeasurement(BB)"
*FILE_SAMPLE "ScTiZn0201"
*FILE_SYSTEM_NAME "SmartLabXE"
*FILE_TYPE "RAS_RAW"
*FILE_USERGROUP "Administrators"
*FILE_VERSION "1"
*HW_ATTACHMENT_ID "ATT0022"
*HW_ATTACHMENT_NAME "RxRy"
*HW_ATTACHMENT_NAME_INTERNAL "RxRy"
*HW_COUNTER_ID-0 "CUT0041"
*HW_COUNTER_ID-2 "CMC0020"
*HW_COUNTER_MONOCHRO_ID "CMC0020"
*HW_COUNTER_MONOCHRO_NAME "None"
*HW_COUNTER_MONOCHRO_NAME_INTERNAL "None"
*HW_COUNTER_NAME_INTERNAL "DteX250(H)"
*HW_COUNTER_NAME-0 "DteX250(H)"
*HW_COUNTER_NAME-1 "None"
*HW_COUNTER_NAME-2 "None"
*HW_COUNTER_PIXEL_SIZE "0.075"
*HW_COUNTER_SELECT_NAME "DteX250(H)"
*HW_EXTERNAL_CONTROLLER_NAME "None"
*HW_EXTERNAL_CONTROLLER_NAME_INTERNAL "None"
*HW_GONIOMETER_ID "GON0022"
*HW_GONIOMETER_NAME "StandardInplane"
*HW_GONIOMETER_NAME_INTERNAL "StandardInplaneEnc"
*HW_GONIOMETER_RADIUS-0 "90.0"
*HW_GONIOMETER_RADIUS-1 "114.0"
*HW_GONIOMETER_RADIUS-2 "173.5"
*HW_GONIOMETER_RADIUS-3 "300.0"
*HW_GONIOMETER_RADIUS-4 "187.0"
*HW_GONIOMETER_RADIUS-5 "300.0"
*HW_GONIOMETER_RADIUS-6 "113.0"
*HW_GONIOMETER_RADIUS-7 "331.0"
*HW_I_CBO_ID "CBO0021"
*HW_I_CBO_NAME "CBO"
*HW_I_CBO_NAME_INTERNAL "CBO"
*HW_I_MONOCHRO_ID "ISO0021"
*HW_I_MONOCHRO_NAME "IPS_adaptor"
*HW_I_MONOCHRO_NAME_INTERNAL "IPS_adaptor"
*HW_I_OPT_ID-1 "CBO0021"
*HW_I_PRIMARY_NAME_INTERNAL "PrimaryUnit"
*HW_I_SLIT_NAME_INTERNAL "AutoIntegrated"
*HW_R_ATTENUATER_AUTOMODE "0"
*HW_R_ATTENUATOR_NAME_INTERNAL "AutoSlim(Cu)"
*HW_R_OPT_ID-0 "RSS0022"
*HW_R_OPT_ID-1 "RCR0022"
*HW_R_OPT_ID-2 "RSO0021"
*HW_R_OPT_ID-3 "RRS0022"
*HW_R_ROD_ID "RCR0022"
*HW_R_ROD_NAME "ROD_adaptor"
*HW_R_ROD_NAME_INTERNAL "ROD_adaptor"
*HW_R_RPS_ID "RSO0021"
*HW_R_RPS_NAME "RPS_adaptor"
*HW_R_RPS_NAME_INTERNAL "RPS_adaptor"
*HW_R_RS_ID "RRS0022"
*HW_R_RS_NAME "Virtual"
*HW_R_RS_NAME_INTERNAL "Virtual"
*HW_R_SS_ID "RSS0022"
*HW_R_SS_NAME "Auto_Zr"
*HW_R_SS_NAME_INTERNAL "Auto_Zr"
*HW_ROBOT_NAME "No_unit"
*HW_ROBOT_NAME_INTERNAL "No_unit"
*HW_SAMPLE_CAMERA_NAME "None"
*HW_SAMPLE_CAMERA_NAME_INTERNAL "None"
*HW_SAMPLE_HOLDER_ID "SMP0022"
*HW_SAMPLE_HOLDER_NAME "Z_Phi"
*HW_SAMPLE_HOLDER_NAME_INTERNAL "Z_Phi"
*HW_SAMPLE_NAME "PowderSample"
*HW_SAMPLE_NAME_INTERNAL "PowderSample"
*HW_SAMPLE_PLATE_NAME "HeightReference"
*HW_SAMPLE_PLATE_NAME_INTERNAL "HeightReference"
*HW_SAMPLE_SPACER_NAME "None"
*HW_SAMPLE_SPACER_NAME_INTERNAL "None"
*HW_USERINFO_CATALOG_NO ""
*HW_USERINFO_INSTRUMENT_ID ""
*HW_USERINFO_INSTRUMENT_NAME ""
*HW_USERINFO_MODEL ""
*HW_USERINFO_ORDER_NO ""
*HW_USERINFO_SERIAL_NO ""
*HW_USERINFO_VERIFY_INSTRUMENT_ID "00-07-fe-01-22-e6"
*HW_VER_RCD_COUNTER_UNIT "N/A"
*HW_VER_RCD_CPU "3.3.7"
*HW_VER_RCD_FPGA "1.2.3"
*HW_VER_RCD_GONIO_UNIT "6.3.0"
*HW_VER_RCD_INCIDENT_UNIT "6.4.0"
*HW_VER_RCD_RECEIVING_UNIT "8.0.1"
*HW_VER_RCD_TYPE "RINC"
*HW_VER_XGC_CPU "3.3.7"
*HW_VER_XGC_CW "3.0.0"
*HW_VER_XGC_HV "3.0.0"
*HW_VER_XGC_RS1 "3.0.0"
*HW_VER_XGC_RS2 "N/A"
*HW_VER_XGC_RT "N/A"
*HW_VER_XGC_TYPE "RINC"
*HW_XG_CURRENT_UNIT "mA"
*HW_XG_FOCUS "0.4mm x 12mm"
*HW_XG_FOCUS_TYPE "LongFineToshiba"
*HW_XG_TARGET_ATOMIC_NUMBER "29"
*HW_XG_TARGET_NAME "Cu"
*HW_XG_TYPE "Hermetic"
*HW_XG_VOLTAGE_UNIT "kV"
*HW_XG_WAVE_LENGTH_ALPHA1 "1.540593"
*HW_XG_WAVE_LENGTH_ALPHA2 "1.544414"
*HW_XG_WAVE_LENGTH_BETA "1.392246"
*HW_XG_WAVE_LENGTH_UNIT "Angstrom"
*MEAS_COND_AXIS_NAME_INTERNAL-0 "ThetaS"
*MEAS_COND_AXIS_NAME_INTERNAL-1 "ThetaD"
*MEAS_COND_AXIS_NAME_INTERNAL-10 "PrimaryGeometry"
*MEAS_COND_AXIS_NAME_INTERNAL-11 "PrimaryMirrorType"
*MEAS_COND_AXIS_NAME_INTERNAL-12 "CBOType"
*MEAS_COND_AXIS_NAME_INTERNAL-13 "CBO-M"
*MEAS_COND_AXIS_NAME_INTERNAL-14 "CBO"
*MEAS_COND_AXIS_NAME_INTERNAL-15 "IncidentSollerSlit"
*MEAS_COND_AXIS_NAME_INTERNAL-16 "IncidentSlitBox"
*MEAS_COND_AXIS_NAME_INTERNAL-17 "IncidentSlitBox"
*MEAS_COND_AXIS_NAME_INTERNAL-18 "IncidentSlitBox"
*MEAS_COND_AXIS_NAME_INTERNAL-19 "Zs"
*MEAS_COND_AXIS_NAME_INTERNAL-2 "TwoTheta"
*MEAS_COND_AXIS_NAME_INTERNAL-20 "IncidentAxdSlit"
*MEAS_COND_AXIS_NAME_INTERNAL-21 "IncidentAxdSlit"
*MEAS_COND_AXIS_NAME_INTERNAL-22 "IncidentAxdSlit"
*MEAS_COND_AXIS_NAME_INTERNAL-23 "InFilter"
*MEAS_COND_AXIS_NAME_INTERNAL-24 "Z"
*MEAS_COND_AXIS_NAME_INTERNAL-25 "Phi"
*MEAS_COND_AXIS_NAME_INTERNAL-26 "Beta"
*MEAS_COND_AXIS_NAME_INTERNAL-27 "TwoThetaChiPhi"
*MEAS_COND_AXIS_NAME_INTERNAL-28 "AlphaI"
*MEAS_COND_AXIS_NAME_INTERNAL-29 "BetaI"
*MEAS_COND_AXIS_NAME_INTERNAL-3 "Omega"
*MEAS_COND_AXIS_NAME_INTERNAL-30 "TwoThetaB"
*MEAS_COND_AXIS_NAME_INTERNAL-31 "DirectBeamStop"
*MEAS_COND_AXIS_NAME_INTERNAL-32 "KnifeEdge"
*MEAS_COND_AXIS_NAME_INTERNAL-33 "Rx"
*MEAS_COND_AXIS_NAME_INTERNAL-34 "Ry"
*MEAS_COND_AXIS_NAME_INTERNAL-35 "ReceivingSlitBox1"
*MEAS_COND_AXIS_NAME_INTERNAL-36 "ReceivingSlitBox1"
*MEAS_COND_AXIS_NAME_INTERNAL-37 "ReceivingSlitBox1"
*MEAS_COND_AXIS_NAME_INTERNAL-38 "Zr"
*MEAS_COND_AXIS_NAME_INTERNAL-39 "Filter"
*MEAS_COND_AXIS_NAME_INTERNAL-4 "TwoThetaTheta"
*MEAS_COND_AXIS_NAME_INTERNAL-40 "PSA"
*MEAS_COND_AXIS_NAME_INTERNAL-41 "ReceivingSollerSlit"
*MEAS_COND_AXIS_NAME_INTERNAL-42 "ReceivingSlitBox2"
*MEAS_COND_AXIS_NAME_INTERNAL-43 "ReceivingSlitBox2"
*MEAS_COND_AXIS_NAME_INTERNAL-44 "ReceivingSlitBox2"
*MEAS_COND_AXIS_NAME_INTERNAL-45 "Attenuator"
*MEAS_COND_AXIS_NAME_INTERNAL-46 "PHA"
*MEAS_COND_AXIS_NAME_INTERNAL-47 "DedicatedHolder"
*MEAS_COND_AXIS_NAME_INTERNAL-48 "Target_TargetTime"
*MEAS_COND_AXIS_NAME_INTERNAL-49 "Target_XrayOnTime"
*MEAS_COND_AXIS_NAME_INTERNAL-5 "TwoThetaOmega"
*MEAS_COND_AXIS_NAME_INTERNAL-50 "Target_TMPTime"
*MEAS_COND_AXIS_NAME_INTERNAL-51 "Target_RPTime"
*MEAS_COND_AXIS_NAME_INTERNAL-52 "Target_FilamentTime"
*MEAS_COND_AXIS_NAME_INTERNAL-53 "Target_IG"
*MEAS_COND_AXIS_NAME_INTERNAL-54 "Target_GP"
*MEAS_COND_AXIS_NAME_INTERNAL-55 "Target_FC"
*MEAS_COND_AXIS_NAME_INTERNAL-56 "HVPS_HVPSTime"
*MEAS_COND_AXIS_NAME_INTERNAL-57 "HVPS_Type1Time"
*MEAS_COND_AXIS_NAME_INTERNAL-58 "HVPS_Type2Time"
*MEAS_COND_AXIS_NAME_INTERNAL-59 "HVPS_Type3Time"
*MEAS_COND_AXIS_NAME_INTERNAL-6 "OmegaTwoTheta"
*MEAS_COND_AXIS_NAME_INTERNAL-60 "CW_IERTime"
*MEAS_COND_AXIS_NAME_INTERNAL-61 "CW_ECTime"
*MEAS_COND_AXIS_NAME_INTERNAL-62 "CW_Flow1"
*MEAS_COND_AXIS_NAME_INTERNAL-63 "CW_Temperature1"
*MEAS_COND_AXIS_NAME_INTERNAL-64 "CW_Pressure1"
*MEAS_COND_AXIS_NAME_INTERNAL-65 "CW_PressureIn"
*MEAS_COND_AXIS_NAME_INTERNAL-66 "CW_PressureOut"
*MEAS_COND_AXIS_NAME_INTERNAL-67 "CW_Flow2"
*MEAS_COND_AXIS_NAME_INTERNAL-68 "CW_Temperature2"
*MEAS_COND_AXIS_NAME_INTERNAL-69 "CW_Pressure2"
*MEAS_COND_AXIS_NAME_INTERNAL-7 "TwoThetaChi"
*MEAS_COND_AXIS_NAME_INTERNAL-70 "RE_EnclosureTemp"
*MEAS_COND_AXIS_NAME_INTERNAL-71 "RE_EnclosureHummidity"
*MEAS_COND_AXIS_NAME_INTERNAL-72 "RE_CabinetTemp"
*MEAS_COND_AXIS_NAME_INTERNAL-73 "RE_RPTemp"
*MEAS_COND_AXIS_NAME_INTERNAL-74 "RE_ShutterAXrayOnTime"
*MEAS_COND_AXIS_NAME_INTERNAL-75 "RE_ShutterATimes"
*MEAS_COND_AXIS_NAME_INTERNAL-76 "RE_ShutterAOpenCloseTime"
*MEAS_COND_AXIS_NAME_INTERNAL-77 "RE_ShutterACloseOpenTime"
*MEAS_COND_AXIS_NAME_INTERNAL-78 "RE_ShutterBXrayOnTime"
*MEAS_COND_AXIS_NAME_INTERNAL-79 "RE_ShutterBTimes"
*MEAS_COND_AXIS_NAME_INTERNAL-8 "Ts"
*MEAS_COND_AXIS_NAME_INTERNAL-80 "RE_ShutterBOpenCloseTime"
*MEAS_COND_AXIS_NAME_INTERNAL-81 "RE_ShutterBCloseOpenTime"
*MEAS_COND_AXIS_NAME_INTERNAL-82 "RE_XrayWarningRamp"
*MEAS_COND_AXIS_NAME_INTERNAL-83 "RE_ShutterAInstallation"
*MEAS_COND_AXIS_NAME_INTERNAL-84 "RE_ShutterARamp"
*MEAS_COND_AXIS_NAME_INTERNAL-85 "RE_ShutterBInstallation"
*MEAS_COND_AXIS_NAME_INTERNAL-86 "RE_ShutterBRamp"
*MEAS_COND_AXIS_NAME_INTERNAL-87 "RE_ExtShutterCLS"
*MEAS_COND_AXIS_NAME_INTERNAL-88 "RE_ExtXrayOFF"
*MEAS_COND_AXIS_NAME_INTERNAL-89 "RE_ExtSafetyCircuit"
*MEAS_COND_AXIS_NAME_INTERNAL-9 "Ma"
*MEAS_COND_AXIS_NAME_INTERNAL-90 "Version_CPU"
*MEAS_COND_AXIS_NAME_INTERNAL-91 "Version_RS1"
*MEAS_COND_AXIS_NAME_INTERNAL-92 "Version_RS2"
*MEAS_COND_AXIS_NAME_INTERNAL-93 "Version_HV"
*MEAS_COND_AXIS_NAME_INTERNAL-94 "Version_CW"
*MEAS_COND_AXIS_NAME_INTERNAL-95 "Version_RT"
*MEAS_COND_AXIS_NAME_INTERNAL-96 "IncidentPrimary"
*MEAS_COND_AXIS_NAME_INTERNAL-97 "IncidentMonochromator"
*MEAS_COND_AXIS_NAME_INTERNAL-98 "ReceivingOptics"
*MEAS_COND_AXIS_NAME_INTERNAL-99 "CounterMonochromatorKind"
*MEAS_COND_AXIS_NAME-0 "ThetaS"
*MEAS_COND_AXIS_NAME-1 "ThetaD"
*MEAS_COND_AXIS_NAME-10 "PrimaryGeometry"
*MEAS_COND_AXIS_NAME-11 "PrimaryMirrorType"
*MEAS_COND_AXIS_NAME-12 "CBOType"
*MEAS_COND_AXIS_NAME-13 "CBO-M"
*MEAS_COND_AXIS_NAME-14 "CBO"
*MEAS_COND_AXIS_NAME-15 "IncidentSollerSlit"
*MEAS_COND_AXIS_NAME-16 "IncidentSlitBox"
*MEAS_COND_AXIS_NAME-17 "IncidentSlitBox-_Axis"
*MEAS_COND_AXIS_NAME-18 "SlitDS"
*MEAS_COND_AXIS_NAME-19 "Zs"
*MEAS_COND_AXIS_NAME-2 "TwoTheta"
*MEAS_COND_AXIS_NAME-20 "IncidentAxdSlit"
*MEAS_COND_AXIS_NAME-21 "LLS"
*MEAS_COND_AXIS_NAME-22 "DHLSlit"
*MEAS_COND_AXIS_NAME-23 "InFilter"
*MEAS_COND_AXIS_NAME-24 "Z"
*MEAS_COND_AXIS_NAME-25 "Phi"
*MEAS_COND_AXIS_NAME-26 "Beta"
*MEAS_COND_AXIS_NAME-27 "TwoThetaChiPhi"
*MEAS_COND_AXIS_NAME-28 "AlphaI"
*MEAS_COND_AXIS_NAME-29 "BetaI"
*MEAS_COND_AXIS_NAME-3 "Omega"
*MEAS_COND_AXIS_NAME-30 "TwoThetaB"
*MEAS_COND_AXIS_NAME-31 "DirectBeamStop"
*MEAS_COND_AXIS_NAME-32 "KnifeEdge"
*MEAS_COND_AXIS_NAME-33 "Rx"
*MEAS_COND_AXIS_NAME-34 "Ry"
*MEAS_COND_AXIS_NAME-35 "ReceivingSlitBox1"
*MEAS_COND_AXIS_NAME-36 "ReceivingSlitBox1-_Axis"
*MEAS_COND_AXIS_NAME-37 "SlitSS"
*MEAS_COND_AXIS_NAME-38 "Zr"
*MEAS_COND_AXIS_NAME-39 "Filter"
*MEAS_COND_AXIS_NAME-4 "TwoThetaTheta"
*MEAS_COND_AXIS_NAME-40 "PSA"
*MEAS_COND_AXIS_NAME-41 "ReceivingSollerSlit"
*MEAS_COND_AXIS_NAME-42 "ReceivingSlitBox2"
*MEAS_COND_AXIS_NAME-43 "ReceivingSlitBox2-_Axis"
*MEAS_COND_AXIS_NAME-44 "SlitRS"
*MEAS_COND_AXIS_NAME-45 "Attenuator"
*MEAS_COND_AXIS_NAME-46 "PHA"
*MEAS_COND_AXIS_NAME-47 "DedicatedHolder"
*MEAS_COND_AXIS_NAME-48 "Target_TargetTime"
*MEAS_COND_AXIS_NAME-49 "Target_XrayOnTime"
*MEAS_COND_AXIS_NAME-5 "TwoThetaOmega"
*MEAS_COND_AXIS_NAME-50 "Target_TMPTime"
*MEAS_COND_AXIS_NAME-51 "Target_RPTime"
*MEAS_COND_AXIS_NAME-52 "Target_FilamentTime"
*MEAS_COND_AXIS_NAME-53 "Target_IG"
*MEAS_COND_AXIS_NAME-54 "Target_GP"
*MEAS_COND_AXIS_NAME-55 "Target_FC"
*MEAS_COND_AXIS_NAME-56 "HVPS_HVPSTime"
*MEAS_COND_AXIS_NAME-57 "HVPS_Type1Time"
*MEAS_COND_AXIS_NAME-58 "HVPS_Type2Time"
*MEAS_COND_AXIS_NAME-59 "HVPS_Type3Time"
*MEAS_COND_AXIS_NAME-6 "OmegaTwoTheta"
*MEAS_COND_AXIS_NAME-60 "CW_IERTime"
*MEAS_COND_AXIS_NAME-61 "CW_ECTime"
*MEAS_COND_AXIS_NAME-62 "CW_Flow1"
*MEAS_COND_AXIS_NAME-63 "CW_Temperature1"
*MEAS_COND_AXIS_NAME-64 "CW_Pressure1"
*MEAS_COND_AXIS_NAME-65 "CW_PressureIn"
*MEAS_COND_AXIS_NAME-66 "CW_PressureOut"
*MEAS_COND_AXIS_NAME-67 "CW_Flow2"
*MEAS_COND_AXIS_NAME-68 "CW_Temperature2"
*MEAS_COND_AXIS_NAME-69 "CW_Pressure2"
*MEAS_COND_AXIS_NAME-7 "TwoThetaChi"
*MEAS_COND_AXIS_NAME-70 "RE_EnclosureTemp"
*MEAS_COND_AXIS_NAME-71 "RE_EnclosureHummidity"
*MEAS_COND_AXIS_NAME-72 "RE_CabinetTemp"
*MEAS_COND_AXIS_NAME-73 "RE_RPTemp"
*MEAS_COND_AXIS_NAME-74 "RE_ShutterAXrayOnTime"
*MEAS_COND_AXIS_NAME-75 "RE_ShutterATimes"
*MEAS_COND_AXIS_NAME-76 "RE_ShutterAOpenCloseTime"
*MEAS_COND_AXIS_NAME-77 "RE_ShutterACloseOpenTime"
*MEAS_COND_AXIS_NAME-78 "RE_ShutterBXrayOnTime"
*MEAS_COND_AXIS_NAME-79 "RE_ShutterBTimes"
*MEAS_COND_AXIS_NAME-8 "Ts"
*MEAS_COND_AXIS_NAME-80 "RE_ShutterBOpenCloseTime"
*MEAS_COND_AXIS_NAME-81 "RE_ShutterBCloseOpenTime"
*MEAS_COND_AXIS_NAME-82 "RE_XrayWarningRamp"
*MEAS_COND_AXIS_NAME-83 "RE_ShutterAInstallation"
*MEAS_COND_AXIS_NAME-84 "RE_ShutterARamp"
*MEAS_COND_AXIS_NAME-85 "RE_ShutterBInstallation"
*MEAS_COND_AXIS_NAME-86 "RE_ShutterBRamp"
*MEAS_COND_AXIS_NAME-87 "RE_ExtShutterCLS"
*MEAS_COND_AXIS_NAME-88 "RE_ExtXrayOFF"
*MEAS_COND_AXIS_NAME-89 "RE_ExtSafetyCircuit"
*MEAS_COND_AXIS_NAME-9 "Ma"
*MEAS_COND_AXIS_NAME-90 "Version_CPU"
*MEAS_COND_AXIS_NAME-91 "Version_RS1"
*MEAS_COND_AXIS_NAME-92 "Version_RS2"
*MEAS_COND_AXIS_NAME-93 "Version_HV"
*MEAS_COND_AXIS_NAME-94 "Version_CW"
*MEAS_COND_AXIS_NAME-95 "Version_RT"
*MEAS_COND_AXIS_NAME-96 "IncidentPrimary"
*MEAS_COND_AXIS_NAME-97 "IncidentMonochromator"
*MEAS_COND_AXIS_NAME-98 "ReceivingOptics"
*MEAS_COND_AXIS_NAME-99 "CounterMonochromatorKind"
*MEAS_COND_AXIS_OFFSET-0 "0.584"
*MEAS_COND_AXIS_OFFSET-1 "0.164"
*MEAS_COND_AXIS_OFFSET-10 "0"
*MEAS_COND_AXIS_OFFSET-11 "0"
*MEAS_COND_AXIS_OFFSET-12 "0"
*MEAS_COND_AXIS_OFFSET-13 "0"
*MEAS_COND_AXIS_OFFSET-14 "0"
*MEAS_COND_AXIS_OFFSET-15 "0"
*MEAS_COND_AXIS_OFFSET-16 "0"
*MEAS_COND_AXIS_OFFSET-17 "0"
*MEAS_COND_AXIS_OFFSET-18 "0"
*MEAS_COND_AXIS_OFFSET-19 "0"
*MEAS_COND_AXIS_OFFSET-2 "0.748"
*MEAS_COND_AXIS_OFFSET-20 "0"
*MEAS_COND_AXIS_OFFSET-21 "0"
*MEAS_COND_AXIS_OFFSET-22 "0"
*MEAS_COND_AXIS_OFFSET-23 "0"
*MEAS_COND_AXIS_OFFSET-24 "0"
*MEAS_COND_AXIS_OFFSET-25 "0"
*MEAS_COND_AXIS_OFFSET-26 "0"
*MEAS_COND_AXIS_OFFSET-27 "0"
*MEAS_COND_AXIS_OFFSET-28 "0"
*MEAS_COND_AXIS_OFFSET-29 "0"
*MEAS_COND_AXIS_OFFSET-3 "0.584"
*MEAS_COND_AXIS_OFFSET-30 "0"
*MEAS_COND_AXIS_OFFSET-31 "0"
*MEAS_COND_AXIS_OFFSET-32 "0"
*MEAS_COND_AXIS_OFFSET-33 "0"
*MEAS_COND_AXIS_OFFSET-34 "0"
*MEAS_COND_AXIS_OFFSET-35 "0"
*MEAS_COND_AXIS_OFFSET-36 "0"
*MEAS_COND_AXIS_OFFSET-37 "0"
*MEAS_COND_AXIS_OFFSET-38 "0"
*MEAS_COND_AXIS_OFFSET-39 "0"
*MEAS_COND_AXIS_OFFSET-4 "0"
*MEAS_COND_AXIS_OFFSET-40 "0"
*MEAS_COND_AXIS_OFFSET-41 "0"
*MEAS_COND_AXIS_OFFSET-42 "0"
*MEAS_COND_AXIS_OFFSET-43 "0"
*MEAS_COND_AXIS_OFFSET-44 "0"
*MEAS_COND_AXIS_OFFSET-45 "0"
*MEAS_COND_AXIS_OFFSET-46 "0"
*MEAS_COND_AXIS_OFFSET-47 "0"
*MEAS_COND_AXIS_OFFSET-48 "0"
*MEAS_COND_AXIS_OFFSET-49 "0"
*MEAS_COND_AXIS_OFFSET-5 "0"
*MEAS_COND_AXIS_OFFSET-50 "0"
*MEAS_COND_AXIS_OFFSET-51 "0"
*MEAS_COND_AXIS_OFFSET-52 "0"
*MEAS_COND_AXIS_OFFSET-53 "0"
*MEAS_COND_AXIS_OFFSET-54 "0"
*MEAS_COND_AXIS_OFFSET-55 "0"
*MEAS_COND_AXIS_OFFSET-56 "0"
*MEAS_COND_AXIS_OFFSET-57 "0"
*MEAS_COND_AXIS_OFFSET-58 "0"
*MEAS_COND_AXIS_OFFSET-59 "0"
*MEAS_COND_AXIS_OFFSET-6 "0"
*MEAS_COND_AXIS_OFFSET-60 "0"
*MEAS_COND_AXIS_OFFSET-61 "0"
*MEAS_COND_AXIS_OFFSET-62 "0"
*MEAS_COND_AXIS_OFFSET-63 "0"
*MEAS_COND_AXIS_OFFSET-64 "0"
*MEAS_COND_AXIS_OFFSET-65 "0"
*MEAS_COND_AXIS_OFFSET-66 "0"
*MEAS_COND_AXIS_OFFSET-67 "0"
*MEAS_COND_AXIS_OFFSET-68 "0"
*MEAS_COND_AXIS_OFFSET-69 "0"
*MEAS_COND_AXIS_OFFSET-7 "0"
*MEAS_COND_AXIS_OFFSET-70 "0"
*MEAS_COND_AXIS_OFFSET-71 "0"
*MEAS_COND_AXIS_OFFSET-72 "0"
*MEAS_COND_AXIS_OFFSET-73 "0"
*MEAS_COND_AXIS_OFFSET-74 "0"
*MEAS_COND_AXIS_OFFSET-75 "0"
*MEAS_COND_AXIS_OFFSET-76 "0"
*MEAS_COND_AXIS_OFFSET-77 "0"
*MEAS_COND_AXIS_OFFSET-78 "0"
*MEAS_COND_AXIS_OFFSET-79 "0"
*MEAS_COND_AXIS_OFFSET-8 "0"
*MEAS_COND_AXIS_OFFSET-80 "0"
*MEAS_COND_AXIS_OFFSET-81 "0"
*MEAS_COND_AXIS_OFFSET-82 "0"
*MEAS_COND_AXIS_OFFSET-83 "0"
*MEAS_COND_AXIS_OFFSET-84 "0"
*MEAS_COND_AXIS_OFFSET-85 "0"
*MEAS_COND_AXIS_OFFSET-86 "0"
*MEAS_COND_AXIS_OFFSET-87 "0"
*MEAS_COND_AXIS_OFFSET-88 "0"
*MEAS_COND_AXIS_OFFSET-89 "0"
*MEAS_COND_AXIS_OFFSET-9 "0"
*MEAS_COND_AXIS_OFFSET-90 "0"
*MEAS_COND_AXIS_OFFSET-91 "0"
*MEAS_COND_AXIS_OFFSET-92 "0"
*MEAS_COND_AXIS_OFFSET-93 "0"
*MEAS_COND_AXIS_OFFSET-94 "0"
*MEAS_COND_AXIS_OFFSET-95 "0"
*MEAS_COND_AXIS_OFFSET-96 "0"
*MEAS_COND_AXIS_OFFSET-97 "0"
*MEAS_COND_AXIS_OFFSET-98 "0"
*MEAS_COND_AXIS_OFFSET-99 "0"
*MEAS_COND_AXIS_POSITION-0 "0.0000"
*MEAS_COND_AXIS_POSITION-1 "0.0000"
*MEAS_COND_AXIS_POSITION-10 "Left"
*MEAS_COND_AXIS_POSITION-11 "Ka1"
*MEAS_COND_AXIS_POSITION-12 "Type2"
*MEAS_COND_AXIS_POSITION-13 "0"
*MEAS_COND_AXIS_POSITION-14 "BB"
*MEAS_COND_AXIS_POSITION-15 "Soller_slit_2.5deg"
*MEAS_COND_AXIS_POSITION-16 "1/2deg"
*MEAS_COND_AXIS_POSITION-17 "1.514375"
*MEAS_COND_AXIS_POSITION-18 "1/2deg"
*MEAS_COND_AXIS_POSITION-19 "0.7015625"
*MEAS_COND_AXIS_POSITION-2 "0.0000"
*MEAS_COND_AXIS_POSITION-20 "10mm"
*MEAS_COND_AXIS_POSITION-21 "10mm"
*MEAS_COND_AXIS_POSITION-22 "10mm"
*MEAS_COND_AXIS_POSITION-23 "None"
*MEAS_COND_AXIS_POSITION-24 "0.01228"
*MEAS_COND_AXIS_POSITION-25 "0.000"
*MEAS_COND_AXIS_POSITION-26 "0.000"
*MEAS_COND_AXIS_POSITION-27 "0.000"
*MEAS_COND_AXIS_POSITION-28 "90.00"
*MEAS_COND_AXIS_POSITION-29 "0.000"
*MEAS_COND_AXIS_POSITION-3 "0.0000"
*MEAS_COND_AXIS_POSITION-30 "0.0000"
*MEAS_COND_AXIS_POSITION-31 "Out"
*MEAS_COND_AXIS_POSITION-32 "None"
*MEAS_COND_AXIS_POSITION-33 "0.00000"
*MEAS_COND_AXIS_POSITION-34 "0.00000"
*MEAS_COND_AXIS_POSITION-35 "Open"
*MEAS_COND_AXIS_POSITION-36 "20.000000"
*MEAS_COND_AXIS_POSITION-37 "Open"
*MEAS_COND_AXIS_POSITION-38 "-0.2221875"
*MEAS_COND_AXIS_POSITION-39 "None"
*MEAS_COND_AXIS_POSITION-4 "0.0000"
*MEAS_COND_AXIS_POSITION-40 "PSA_open"
*MEAS_COND_AXIS_POSITION-41 "Soller_slit_2.5deg"
*MEAS_COND_AXIS_POSITION-42 "Open"
*MEAS_COND_AXIS_POSITION-43 "0.000"
*MEAS_COND_AXIS_POSITION-44 "Open"
*MEAS_COND_AXIS_POSITION-45 "Open"
*MEAS_COND_AXIS_POSITION-46 "36"
*MEAS_COND_AXIS_POSITION-47 "None"
*MEAS_COND_AXIS_POSITION-5 "0.0000"
*MEAS_COND_AXIS_POSITION-6 "0.0000"
*MEAS_COND_AXIS_POSITION-7 "0.0000"
*MEAS_COND_AXIS_POSITION-8 "-4.0000000"
*MEAS_COND_AXIS_POSITION-9 "0"
*MEAS_COND_AXIS_POSITION-96 "PrimaryUnit"
*MEAS_COND_AXIS_POSITION-97 "IPS_adaptor"
*MEAS_COND_AXIS_POSITION-98 "PSA_open"
*MEAS_COND_AXIS_POSITION-99 "None"
*MEAS_COND_AXIS_UNIT-0 "deg"
*MEAS_COND_AXIS_UNIT-1 "deg"
*MEAS_COND_AXIS_UNIT-10 ""
*MEAS_COND_AXIS_UNIT-11 ""
*MEAS_COND_AXIS_UNIT-12 ""
*MEAS_COND_AXIS_UNIT-13 "pulse"
*MEAS_COND_AXIS_UNIT-14 ""
*MEAS_COND_AXIS_UNIT-15 ""
*MEAS_COND_AXIS_UNIT-16 ""
*MEAS_COND_AXIS_UNIT-17 "mm"
*MEAS_COND_AXIS_UNIT-18 ""
*MEAS_COND_AXIS_UNIT-19 "mm"
*MEAS_COND_AXIS_UNIT-2 "deg"
*MEAS_COND_AXIS_UNIT-20 ""
*MEAS_COND_AXIS_UNIT-21 ""
*MEAS_COND_AXIS_UNIT-22 ""
*MEAS_COND_AXIS_UNIT-23 ""
*MEAS_COND_AXIS_UNIT-24 "mm"
*MEAS_COND_AXIS_UNIT-25 "deg"
*MEAS_COND_AXIS_UNIT-26 "deg"
*MEAS_COND_AXIS_UNIT-27 "deg"
*MEAS_COND_AXIS_UNIT-28 "deg"
*MEAS_COND_AXIS_UNIT-29 "deg"
*MEAS_COND_AXIS_UNIT-3 "deg"
*MEAS_COND_AXIS_UNIT-30 "deg"
*MEAS_COND_AXIS_UNIT-31 ""
*MEAS_COND_AXIS_UNIT-32 ""
*MEAS_COND_AXIS_UNIT-33 "deg"
*MEAS_COND_AXIS_UNIT-34 "deg"
*MEAS_COND_AXIS_UNIT-35 ""
*MEAS_COND_AXIS_UNIT-36 "mm"
*MEAS_COND_AXIS_UNIT-37 ""
*MEAS_COND_AXIS_UNIT-38 "mm"
*MEAS_COND_AXIS_UNIT-39 ""
*MEAS_COND_AXIS_UNIT-4 "deg"
*MEAS_COND_AXIS_UNIT-40 ""
*MEAS_COND_AXIS_UNIT-41 ""
*MEAS_COND_AXIS_UNIT-42 ""
*MEAS_COND_AXIS_UNIT-43 "mm"
*MEAS_COND_AXIS_UNIT-44 ""
*MEAS_COND_AXIS_UNIT-45 ""
*MEAS_COND_AXIS_UNIT-46 "div"
*MEAS_COND_AXIS_UNIT-47 ""
*MEAS_COND_AXIS_UNIT-48 "H"
*MEAS_COND_AXIS_UNIT-49 "H"
*MEAS_COND_AXIS_UNIT-5 "deg"
*MEAS_COND_AXIS_UNIT-50 "H"
*MEAS_COND_AXIS_UNIT-51 "H"
*MEAS_COND_AXIS_UNIT-52 "H"
*MEAS_COND_AXIS_UNIT-53 "mV"
*MEAS_COND_AXIS_UNIT-54 "V"
*MEAS_COND_AXIS_UNIT-55 "V"
*MEAS_COND_AXIS_UNIT-56 "H"
*MEAS_COND_AXIS_UNIT-57 "H"
*MEAS_COND_AXIS_UNIT-58 "H"
*MEAS_COND_AXIS_UNIT-59 "H"
*MEAS_COND_AXIS_UNIT-6 "deg"
*MEAS_COND_AXIS_UNIT-60 "H"
*MEAS_COND_AXIS_UNIT-61 "uS/m"
*MEAS_COND_AXIS_UNIT-62 "L/min"
*MEAS_COND_AXIS_UNIT-63 "degree"
*MEAS_COND_AXIS_UNIT-64 "MPa"
*MEAS_COND_AXIS_UNIT-65 "MPa"
*MEAS_COND_AXIS_UNIT-66 "MPa"
*MEAS_COND_AXIS_UNIT-67 "L/min"
*MEAS_COND_AXIS_UNIT-68 "C"
*MEAS_COND_AXIS_UNIT-69 "MPa"
*MEAS_COND_AXIS_UNIT-7 "deg"
*MEAS_COND_AXIS_UNIT-70 "degree"
*MEAS_COND_AXIS_UNIT-71 "percent"
*MEAS_COND_AXIS_UNIT-72 "degree"
*MEAS_COND_AXIS_UNIT-73 "C"
*MEAS_COND_AXIS_UNIT-74 "H"
*MEAS_COND_AXIS_UNIT-75 "time"
*MEAS_COND_AXIS_UNIT-76 "msec"
*MEAS_COND_AXIS_UNIT-77 "msec"
*MEAS_COND_AXIS_UNIT-78 "H"
*MEAS_COND_AXIS_UNIT-79 "times"
*MEAS_COND_AXIS_UNIT-8 "mm"
*MEAS_COND_AXIS_UNIT-80 "msec"
*MEAS_COND_AXIS_UNIT-81 "msec"
*MEAS_COND_AXIS_UNIT-82 "-"
*MEAS_COND_AXIS_UNIT-83 "-"
*MEAS_COND_AXIS_UNIT-84 "-"
*MEAS_COND_AXIS_UNIT-85 ""
*MEAS_COND_AXIS_UNIT-86 "-"
*MEAS_COND_AXIS_UNIT-87 "-"
*MEAS_COND_AXIS_UNIT-88 "-"
*MEAS_COND_AXIS_UNIT-89 ""
*MEAS_COND_AXIS_UNIT-9 "pulse"
*MEAS_COND_AXIS_UNIT-90 ""
*MEAS_COND_AXIS_UNIT-91 ""
*MEAS_COND_AXIS_UNIT-92 ""
*MEAS_COND_AXIS_UNIT-93 ""
*MEAS_COND_AXIS_UNIT-94 ""
*MEAS_COND_AXIS_UNIT-95 ""
*MEAS_COND_AXIS_UNIT-96 ""
*MEAS_COND_AXIS_UNIT-97 ""
*MEAS_COND_AXIS_UNIT-98 ""
*MEAS_COND_AXIS_UNIT-99 ""
*MEAS_COND_OPT_ATTR "BB"
*MEAS_COND_OPT_NAME ""
*MEAS_COND_XG_CURRENT "50"
*MEAS_COND_XG_VOLTAGE "40"
*MEAS_COND_XG_WAVE_TYPE "Ka1"
*MEAS_DATA_COUNT "6001"
*MEAS_SCAN_AXIS_X "TwoThetaTheta"
*MEAS_SCAN_AXIS_X_INTERNAL "TwoThetaTheta"
*MEAS_SCAN_END_TIME "02/08/2020 15:10:15"
*MEAS_SCAN_MODE "CONTINUOUS"
*MEAS_SCAN_MODE_INTERNAL "TDI_1D"
*MEAS_SCAN_RESOLUTION_X "0.0002"
*MEAS_SCAN_SPEED "4.0000"
*MEAS_SCAN_SPEED_UNIT "deg/min"
*MEAS_SCAN_START "20.0000"
*MEAS_SCAN_START_TIME "02/08/2020 14:53:59"
*MEAS_SCAN_STEP "0.0100"
*MEAS_SCAN_STOP "80.0000"
*MEAS_SCAN_UNEQUALY_SPACED "False"
*MEAS_SCAN_UNIT_X "deg"
*MEAS_SCAN_UNIT_Y "cps"
#Intensity_unit=cps
#Attenuator_coefficient=1.0000
20.0000 126.6666
20.0100 60.0000
20.0200 73.3334
20.0300 60.0000
20.0400 113.3334
20.0500 120.0000
20.0600 100.0000
20.0700 120.0000
20.0800 106.6666
20.0900 86.6666
20.1000 93.3334
20.1100 53.3334
20.1200 120.0000
20.1300 180.0000
20.1400 120.0000
20.1500 100.0000
20.1600 120.0000
20.1700 133.3334
20.1800 113.3334
20.1900 153.3334
20.2000 140.0000
20.2100 133.3334
20.2200 146.6666
20.2300 126.6666
20.2400 93.3334
20.2500 126.6666
20.2600 140.0000
20.2700 106.6666
20.2800 113.3334
20.2900 126.6666
20.3000 126.6666
20.3100 86.6666
20.3200 100.0000
20.3300 133.3334
20.3400 73.3334
20.3500 80.0000
20.3600 133.3334
20.3700 100.0000
20.3800 86.6666
20.3900 126.6666
20.4000 126.6666
20.4100 106.6666
20.4200 113.3334
20.4300 113.3334
20.4400 93.3334
20.4500 86.6666
20.4600 140.0000
20.4700 126.6666
20.4800 153.3334
20.4900 86.6666
20.5000 146.6666
20.5100 113.3334
20.5200 146.6666
20.5300 86.6666
20.5400 80.0000
20.5500 113.3334
20.5600 106.6666
20.5700 66.6666
20.5800 100.0000
20.5900 100.0000
20.6000 86.6666
20.6100 100.0000
20.6200 106.6666
20.6300 86.6666
20.6400 80.0000
20.6500 120.0000
20.6600 106.6666
20.6700 106.6666
20.6800 120.0000
20.6900 173.3334
20.7000 146.6666
20.7100 140.0000
20.7200 133.3334
20.7300 100.0000
20.7400 106.6666
20.7500 140.0000
20.7600 100.0000
20.7700 73.3334
20.7800 180.0000
20.7900 186.6666
20.8000 146.6666
20.8100 306.6666
20.8200 280.0000
20.8300 386.6666
20.8400 400.0000
20.8500 466.6666
20.8600 306.6666
20.8700 193.3334
20.8800 166.6666
20.8900 153.3334
20.9000 120.0000
20.9100 133.3334
20.9200 140.0000
20.9300 86.6666
20.9400 86.6666
20.9500 120.0000
20.9600 140.0000
20.9700 200.0000
20.9800 146.6666
20.9900 106.6666
21.0000 86.6666
21.0100 93.3334
21.0200 120.0000
21.0300 120.0000
21.0400 86.6666
21.0500 113.3334
21.0600 60.0000
21.0700 93.3334
21.0800 126.6666
21.0900 93.3334
21.1000 106.6666
21.1100 120.0000
21.1200 106.6666
21.1300 106.6666
21.1400 106.6666
21.1500 140.0000
21.1600 140.0000
21.1700 126.6666
21.1800 140.0000
21.1900 100.0000
21.2000 53.3334
21.2100 100.0000
21.2200 80.0000
21.2300 86.6666
21.2400 93.3334
21.2500 133.3334
21.2600 106.6666
21.2700 100.0000
21.2800 53.3334
21.2900 80.0000
21.3000 113.3334
21.3100 113.3334
21.3200 93.3334
21.3300 106.6666
21.3400 146.6666
21.3500 106.6666
21.3600 80.0000
21.3700 113.3334
21.3800 100.0000
21.3900 113.3334
21.4000 86.6666
21.4100 106.6666
21.4200 86.6666
21.4300 153.3334
21.4400 80.0000
21.4500 106.6666
21.4600 100.0000
21.4700 53.3334
21.4800 133.3334
21.4900 106.6666
21.5000 120.0000
21.5100 113.3334
21.5200 80.0000
21.5300 86.6666
21.5400 66.6666
21.5500 93.3334
21.5600 93.3334
21.5700 113.3334
21.5800 106.6666
21.5900 93.3334
21.6000 106.6666
21.6100 113.3334
21.6200 120.0000
21.6300 106.6666
21.6400 86.6666
21.6500 140.0000
21.6600 100.0000
21.6700 80.0000
21.6800 106.6666
21.6900 66.6666
21.7000 80.0000
21.7100 120.0000
21.7200 80.0000
21.7300 66.6666
21.7400 53.3334
21.7500 93.3334
21.7600 73.3334
21.7700 120.0000
21.7800 80.0000
21.7900 80.0000
21.8000 106.6666
21.8100 93.3334
21.8200 100.0000
21.8300 73.3334
21.8400 113.3334
21.8500 93.3334
21.8600 80.0000
21.8700 100.0000
21.8800 80.0000
21.8900 46.6666
21.9000 106.6666
21.9100 120.0000
21.9200 66.6666
21.9300 113.3334
21.9400 100.0000
21.9500 80.0000
21.9600 53.3334
21.9700 93.3334
21.9800 86.6666
21.9900 93.3334
22.0000 86.6666
22.0100 140.0000
22.0200 153.3334
22.0300 86.6666
22.0400 100.0000
22.0500 93.3334
22.0600 86.6666
22.0700 73.3334
22.0800 86.6666
22.0900 93.3334
22.1000 133.3334
22.1100 133.3334
22.1200 86.6666
22.1300 113.3334
22.1400 146.6666
22.1500 80.0000
22.1600 86.6666
22.1700 93.3334
22.1800 120.0000
22.1900 86.6666
22.2000 80.0000
22.2100 93.3334
22.2200 113.3334
22.2300 106.6666
22.2400 86.6666
22.2500 100.0000
22.2600 113.3334
22.2700 86.6666
22.2800 100.0000
22.2900 113.3334
22.3000 106.6666
22.3100 73.3334
22.3200 113.3334
22.3300 153.3334
22.3400 126.6666
22.3500 133.3334
22.3600 106.6666
22.3700 100.0000
22.3800 93.3334
22.3900 133.3334
22.4000 113.3334
22.4100 86.6666
22.4200 93.3334
22.4300 100.0000
22.4400 73.3334
22.4500 133.3334
22.4600 106.6666
22.4700 86.6666
22.4800 86.6666
22.4900 100.0000
22.5000 73.3334
22.5100 100.0000
22.5200 113.3334
22.5300 126.6666
22.5400 100.0000
22.5500 93.3334
22.5600 93.3334
22.5700 53.3334
22.5800 73.3334
22.5900 80.0000
22.6000 86.6666
22.6100 80.0000
22.6200 80.0000
22.6300 126.6666
22.6400 120.0000
22.6500 100.0000
22.6600 93.3334
22.6700 93.3334
22.6800 73.3334
22.6900 73.3334
22.7000 73.3334
22.7100 80.0000
22.7200 120.0000
22.7300 40.0000
22.7400 73.3334
22.7500 106.6666
22.7600 60.0000
22.7700 93.3334
22.7800 53.3334
22.7900 53.3334
22.8000 106.6666
22.8100 113.3334
22.8200 66.6666
22.8300 73.3334
22.8400 66.6666
22.8500 60.0000
22.8600 80.0000
22.8700 80.0000
22.8800 93.3334
22.8900 66.6666
22.9000 46.6666
22.9100 53.3334
22.9200 60.0000
22.9300 80.0000
22.9400 53.3334
22.9500 46.6666
22.9600 60.0000
22.9700 73.3334
22.9800 100.0000
22.9900 60.0000
23.0000 106.6666
23.0100 80.0000
23.0200 60.0000
23.0300 86.6666
23.0400 86.6666
23.0500 53.3334
23.0600 106.6666
23.0700 133.3334
23.0800 73.3334
23.0900 93.3334
23.1000 66.6666
23.1100 113.3334
23.1200 86.6666
23.1300 53.3334
23.1400 86.6666
23.1500 66.6666
23.1600 60.0000
23.1700 106.6666
23.1800 120.0000
23.1900 86.6666
23.2000 126.6666
23.2100 126.6666
23.2200 173.3334
23.2300 166.6666
23.2400 293.3334
23.2500 380.0000
23.2600 366.6666
23.2700 260.0000
23.2800 220.0000
23.2900 160.0000
23.3000 160.0000
23.3100 126.6666
23.3200 133.3334
23.3300 100.0000
23.3400 106.6666
23.3500 60.0000
23.3600 73.3334
23.3700 113.3334
23.3800 73.3334
23.3900 100.0000
23.4000 86.6666
23.4100 106.6666
23.4200 93.3334
23.4300 66.6666
23.4400 100.0000
23.4500 86.6666
23.4600 46.6666
23.4700 126.6666
23.4800 120.0000
23.4900 86.6666
23.5000 73.3334
23.5100 86.6666
23.5200 100.0000
23.5300 66.6666
23.5400 120.0000
23.5500 166.6666
23.5600 120.0000
23.5700 193.3334
23.5800 273.3334
23.5900 240.0000
23.6000 393.3334
23.6100 326.6666
23.6200 280.0000
23.6300 213.3334
23.6400 166.6666
23.6500 93.3334
23.6600 113.3334
23.6700 80.0000
23.6800 66.6666
23.6900 86.6666
23.7000 126.6666
23.7100 86.6666
23.7200 80.0000
23.7300 73.3334
23.7400 66.6666
23.7500 80.0000
23.7600 60.0000
23.7700 60.0000
23.7800 80.0000
23.7900 93.3334
23.8000 53.3334
23.8100 60.0000
23.8200 40.0000
23.8300 53.3334
23.8400 80.0000
23.8500 120.0000
23.8600 120.0000
23.8700 80.0000
23.8800 86.6666
23.8900 80.0000
23.9000 106.6666
23.9100 73.3334
23.9200 86.6666
23.9300 106.6666
23.9400 93.3334
23.9500 113.3334
23.9600 133.3334
23.9700 113.3334
23.9800 93.3334
23.9900 86.6666
24.0000 133.3334
24.0100 113.3334
24.0200 126.6666
24.0300 80.0000
24.0400 100.0000
24.0500 113.3334
24.0600 166.6666
24.0700 106.6666
24.0800 113.3334
24.0900 73.3334
24.1000 86.6666
24.1100 73.3334
24.1200 113.3334
24.1300 73.3334
24.1400 100.0000
24.1500 73.3334
24.1600 93.3334
24.1700 80.0000
24.1800 106.6666
24.1900 86.6666
24.2000 100.0000
24.2100 106.6666
24.2200 120.0000
24.2300 86.6666
24.2400 66.6666
24.2500 120.0000
24.2600 80.0000
24.2700 60.0000
24.2800 33.3334
24.2900 106.6666
24.3000 86.6666
24.3100 80.0000
24.3200 60.0000
24.3300 106.6666
24.3400 100.0000
24.3500 113.3334
24.3600 80.0000
24.3700 100.0000
24.3800 73.3334
24.3900 60.0000
24.4000 66.6666
24.4100 86.6666
24.4200 80.0000
24.4300 100.0000
24.4400 93.3334
24.4500 86.6666
24.4600 113.3334
24.4700 106.6666
24.4800 100.0000
24.4900 173.3334
24.5000 140.0000
24.5100 226.6666
24.5200 280.0000
24.5300 300.0000
24.5400 333.3334
24.5500 206.6666
24.5600 180.0000
24.5700 173.3334
24.5800 220.0000
24.5900 66.6666
24.6000 53.3334
24.6100 86.6666
24.6200 53.3334
24.6300 60.0000
24.6400 100.0000
24.6500 100.0000
24.6600 80.0000
24.6700 53.3334
24.6800 73.3334
24.6900 93.3334
24.7000 86.6666
24.7100 86.6666
24.7200 80.0000
24.7300 86.6666
24.7400 60.0000
24.7500 73.3334
24.7600 53.3334
24.7700 93.3334
24.7800 53.3334
24.7900 60.0000
24.8000 86.6666
24.8100 113.3334
24.8200 86.6666
24.8300 73.3334
24.8400 86.6666
24.8500 93.3334
24.8600 60.0000
24.8700 80.0000
24.8800 66.6666
24.8900 86.6666
24.9000 60.0000
24.9100 60.0000
24.9200 86.6666
24.9300 93.3334
24.9400 93.3334
24.9500 80.0000
24.9600 53.3334
24.9700 113.3334
24.9800 86.6666
24.9900 73.3334
25.0000 60.0000
25.0100 73.3334
25.0200 106.6666
25.0300 93.3334
25.0400 80.0000
25.0500 113.3334
25.0600 93.3334
25.0700 80.0000
25.0800 53.3334
25.0900 66.6666
25.1000 66.6666
25.1100 73.3334
25.1200 93.3334
25.1300 66.6666
25.1400 53.3334
25.1500 60.0000
25.1600 93.3334
25.1700 126.6666
25.1800 86.6666
25.1900 106.6666
25.2000 40.0000
25.2100 86.6666
25.2200 66.6666
25.2300 86.6666
25.2400 73.3334
25.2500 73.3334
25.2600 60.0000
25.2700 46.6666
25.2800 66.6666
25.2900 126.6666
25.3000 106.6666
25.3100 66.6666
25.3200 53.3334
25.3300 73.3334
25.3400 73.3334
25.3500 73.3334
25.3600 66.6666
25.3700 60.0000
25.3800 60.0000
25.3900 26.6666
25.4000 80.0000
25.4100 73.3334
25.4200 66.6666
25.4300 80.0000
25.4400 53.3334
25.4500 66.6666
25.4600 66.6666
25.4700 53.3334
25.4800 73.3334
25.4900 46.6666
25.5000 93.3334
25.5100 60.0000
25.5200 100.0000
25.5300 66.6666
25.5400 66.6666
25.5500 66.6666
25.5600 73.3334
25.5700 86.6666
25.5800 53.3334
25.5900 60.0000
25.6000 73.3334
25.6100 80.0000
25.6200 73.3334
25.6300 80.0000
25.6400 66.6666
25.6500 60.0000
25.6600 73.3334
25.6700 46.6666
25.6800 86.6666
25.6900 60.0000
25.7000 60.0000
25.7100 66.6666
25.7200 53.3334
25.7300 53.3334
25.7400 86.6666
25.7500 73.3334
25.7600 80.0000
25.7700 106.6666
25.7800 93.3334
25.7900 120.0000
25.8000 186.6666
25.8100 240.0000
25.8200 260.0000
25.8300 253.3334
25.8400 160.0000
25.8500 180.0000
25.8600 233.3334
25.8700 206.6666
25.8800 106.6666
25.8900 146.6666
25.9000 80.0000
25.9100 60.0000
25.9200 80.0000
25.9300 73.3334
25.9400 80.0000
25.9500 53.3334
25.9600 33.3334
25.9700 73.3334
25.9800 73.3334
25.9900 86.6666
26.0000 53.3334
26.0100 60.0000
26.0200 86.6666
26.0300 86.6666
26.0400 120.0000
26.0500 73.3334
26.0600 60.0000
26.0700 86.6666
26.0800 73.3334
26.0900 80.0000
26.1000 40.0000
26.1100 73.3334
26.1200 86.6666
26.1300 40.0000
26.1400 120.0000
26.1500 73.3334
26.1600 33.3334
26.1700 66.6666
26.1800 46.6666
26.1900 40.0000
26.2000 80.0000
26.2100 106.6666
26.2200 86.6666
26.2300 53.3334
26.2400 80.0000
26.2500 113.3334
26.2600 66.6666
26.2700 66.6666
26.2800 73.3334
26.2900 46.6666
26.3000 46.6666
26.3100 80.0000
26.3200 80.0000
26.3300 93.3334
26.3400 60.0000
26.3500 86.6666
26.3600 66.6666
26.3700 73.3334
26.3800 86.6666
26.3900 93.3334
26.4000 106.6666
26.4100 86.6666
26.4200 80.0000
26.4300 60.0000
26.4400 60.0000
26.4500 80.0000
26.4600 60.0000
26.4700 100.0000
26.4800 113.3334
26.4900 86.6666
26.5000 60.0000
26.5100 66.6666
26.5200 73.3334
26.5300 40.0000
26.5400 73.3334
26.5500 80.0000
26.5600 80.0000
26.5700 93.3334
26.5800 73.3334
26.5900 53.3334
26.6000 80.0000
26.6100 80.0000
26.6200 93.3334
26.6300 60.0000
26.6400 93.3334
26.6500 66.6666
26.6600 73.3334
26.6700 106.6666
26.6800 53.3334
26.6900 66.6666
26.7000 113.3334
26.7100 66.6666
26.7200 93.3334
26.7300 66.6666
26.7400 33.3334
26.7500 113.3334
26.7600 86.6666
26.7700 80.0000
26.7800 80.0000
26.7900 73.3334
26.8000 66.6666
26.8100 66.6666
26.8200 66.6666
26.8300 66.6666
26.8400 100.0000
26.8500 80.0000
26.8600 33.3334
26.8700 60.0000
26.8800 93.3334
26.8900 93.3334
26.9000 93.3334
26.9100 73.3334
26.9200 80.0000
26.9300 106.6666
26.9400 126.6666
26.9500 60.0000
26.9600 106.6666
26.9700 93.3334
26.9800 66.6666
26.9900 73.3334
27.0000 60.0000
27.0100 80.0000
27.0200 73.3334
27.0300 80.0000
27.0400 80.0000
27.0500 80.0000
27.0600 80.0000
27.0700 80.0000
27.0800 173.3334
27.0900 286.6666
27.1000 293.3334
27.1100 333.3334
27.1200 286.6666
27.1300 266.6666
27.1400 226.6666
27.1500 246.6666
27.1600 153.3334
27.1700 153.3334
27.1800 166.6666
27.1900 100.0000
27.2000 100.0000
27.2100 106.6666
27.2200 73.3334
27.2300 126.6666
27.2400 86.6666
27.2500 46.6666
27.2600 80.0000
27.2700 46.6666
27.2800 86.6666
27.2900 40.0000
27.3000 80.0000
27.3100 66.6666
27.3200 60.0000
27.3300 60.0000
27.3400 40.0000
27.3500 40.0000
27.3600 100.0000
27.3700 60.0000
27.3800 60.0000
27.3900 60.0000
27.4000 80.0000
27.4100 40.0000
27.4200 73.3334
27.4300 66.6666
27.4400 60.0000
27.4500 60.0000
27.4600 53.3334
27.4700 93.3334
27.4800 60.0000
27.4900 60.0000
27.5000 66.6666
27.5100 86.6666
27.5200 73.3334
27.5300 86.6666
27.5400 73.3334
27.5500 40.0000
27.5600 66.6666
27.5700 93.3334
27.5800 60.0000
27.5900 106.6666
27.6000 60.0000
27.6100 73.3334
27.6200 66.6666
27.6300 106.6666
27.6400 80.0000
27.6500 100.0000
27.6600 66.6666
27.6700 60.0000
27.6800 100.0000
27.6900 106.6666
27.7000 66.6666
27.7100 80.0000
27.7200 106.6666
27.7300 86.6666
27.7400 133.3334
27.7500 86.6666
27.7600 106.6666
27.7700 106.6666
27.7800 86.6666
27.7900 93.3334
27.8000 120.0000
27.8100 160.0000
27.8200 180.0000
27.8300 160.0000
27.8400 160.0000
27.8500 126.6666
27.8600 86.6666
27.8700 93.3334
27.8800 80.0000
27.8900 73.3334
27.9000 53.3334
27.9100 100.0000
27.9200 53.3334
27.9300 53.3334
27.9400 26.6666
27.9500 46.6666
27.9600 40.0000
27.9700 60.0000
27.9800 73.3334
27.9900 60.0000
28.0000 60.0000
28.0100 26.6666
28.0200 33.3334
28.0300 53.3334
28.0400 40.0000
28.0500 53.3334
28.0600 100.0000
28.0700 106.6666
28.0800 46.6666
28.0900 60.0000
28.1000 26.6666
28.1100 66.6666
28.1200 33.3334
28.1300 40.0000
28.1400 60.0000
28.1500 80.0000
28.1600 53.3334
28.1700 53.3334
28.1800 46.6666
28.1900 46.6666
28.2000 80.0000
28.2100 60.0000
28.2200 80.0000
28.2300 73.3334
28.2400 53.3334
28.2500 60.0000
28.2600 26.6666
28.2700 66.6666
28.2800 33.3334
28.2900 46.6666
28.3000 66.6666
28.3100 53.3334
28.3200 60.0000
28.3300 33.3334
28.3400 40.0000
28.3500 33.3334
28.3600 66.6666
28.3700 60.0000
28.3800 66.6666
28.3900 53.3334
28.4000 86.6666
28.4100 60.0000
28.4200 53.3334
28.4300 53.3334
28.4400 93.3334
28.4500 46.6666
28.4600 80.0000
28.4700 53.3334
28.4800 53.3334
28.4900 60.0000
28.5000 53.3334
28.5100 53.3334
28.5200 73.3334
28.5300 53.3334
28.5400 86.6666
28.5500 80.0000
28.5600 86.6666
28.5700 40.0000
28.5800 113.3334
28.5900 93.3334
28.6000 53.3334
28.6100 113.3334
28.6200 73.3334
28.6300 140.0000
28.6400 106.6666
28.6500 86.6666
28.6600 73.3334
28.6700 113.3334
28.6800 100.0000
28.6900 106.6666
28.7000 133.3334
28.7100 146.6666
28.7200 166.6666
28.7300 200.0000
28.7400 206.6666
28.7500 186.6666
28.7600 186.6666
28.7700 186.6666
28.7800 160.0000
28.7900 186.6666
28.8000 140.0000
28.8100 106.6666
28.8200 140.0000
28.8300 140.0000
28.8400 100.0000
28.8500 73.3334
28.8600 93.3334
28.8700 46.6666
28.8800 53.3334
28.8900 86.6666
28.9000 60.0000
28.9100 60.0000
28.9200 86.6666
28.9300 66.6666
28.9400 86.6666
28.9500 46.6666
28.9600 66.6666
28.9700 106.6666
28.9800 106.6666
28.9900 133.3334
29.0000 113.3334
29.0100 153.3334
29.0200 206.6666
29.0300 366.6666
29.0400 380.0000
29.0500 326.6666
29.0600 220.0000
29.0700 146.6666
29.0800 73.3334
29.0900 113.3334
29.1000 160.0000
29.1100 160.0000
29.1200 100.0000
29.1300 160.0000
29.1400 146.6666
29.1500 120.0000
29.1600 80.0000
29.1700 133.3334
29.1800 140.0000
29.1900 93.3334
29.2000 100.0000
29.2100 46.6666
29.2200 66.6666
29.2300 33.3334
29.2400 53.3334
29.2500 120.0000
29.2600 73.3334
29.2700 80.0000
29.2800 66.6666
29.2900 66.6666
29.3000 106.6666
29.3100 60.0000
29.3200 46.6666
29.3300 60.0000
29.3400 60.0000
29.3500 60.0000
29.3600 60.0000
29.3700 106.6666
29.3800 53.3334
29.3900 40.0000
29.4000 46.6666
29.4100 40.0000
29.4200 46.6666
29.4300 93.3334
29.4400 53.3334
29.4500 66.6666
29.4600 86.6666
29.4700 66.6666
29.4800 33.3334
29.4900 66.6666
29.5000 60.0000
29.5100 46.6666
29.5200 80.0000
29.5300 53.3334
29.5400 46.6666
29.5500 60.0000
29.5600 53.3334
29.5700 80.0000
29.5800 60.0000
29.5900 53.3334
29.6000 60.0000
29.6100 26.6666
29.6200 46.6666
29.6300 46.6666
29.6400 53.3334
29.6500 40.0000
29.6600 60.0000
29.6700 46.6666
29.6800 53.3334
29.6900 20.0000
29.7000 73.3334
29.7100 60.0000
29.7200 66.6666
29.7300 53.3334
29.7400 100.0000
29.7500 93.3334
29.7600 73.3334
29.7700 113.3334
29.7800 113.3334
29.7900 113.3334
29.8000 126.6666
29.8100 206.6666
29.8200 93.3334
29.8300 73.3334
29.8400 66.6666
29.8500 60.0000
29.8600 93.3334
29.8700 66.6666
29.8800 60.0000
29.8900 73.3334
29.9000 33.3334
29.9100 46.6666
29.9200 60.0000
29.9300 46.6666
29.9400 86.6666
29.9500 113.3334
29.9600 120.0000
29.9700 133.3334
29.9800 100.0000
29.9900 126.6666
30.0000 140.0000
30.0100 100.0000
30.0200 93.3334
30.0300 66.6666
30.0400 60.0000
30.0500 66.6666
30.0600 113.3334
30.0700 93.3334
30.0800 153.3334
30.0900 206.6666
30.1000 260.0000
30.1100 380.0000
30.1200 326.6666
30.1300 186.6666
30.1400 133.3334
30.1500 146.6666
30.1600 73.3334
30.1700 93.3334
30.1800 60.0000
30.1900 120.0000
30.2000 53.3334
30.2100 93.3334
30.2200 53.3334
30.2300 60.0000
30.2400 26.6666
30.2500 46.6666
30.2600 60.0000
30.2700 53.3334
30.2800 26.6666
30.2900 26.6666
30.3000 53.3334
30.3100 33.3334
30.3200 53.3334
30.3300 66.6666
30.3400 46.6666
30.3500 40.0000
30.3600 46.6666
30.3700 66.6666
30.3800 46.6666
30.3900 26.6666
30.4000 60.0000
30.4100 46.6666
30.4200 86.6666
30.4300 20.0000
30.4400 66.6666
30.4500 53.3334
30.4600 46.6666
30.4700 26.6666
30.4800 46.6666
30.4900 26.6666
30.5000 33.3334
30.5100 53.3334
30.5200 33.3334
30.5300 33.3334
30.5400 46.6666
30.5500 40.0000
30.5600 60.0000
30.5700 53.3334
30.5800 40.0000
30.5900 33.3334
30.6000 53.3334
30.6100 93.3334
30.6200 86.6666
30.6300 120.0000
30.6400 100.0000
30.6500 160.0000
30.6600 106.6666
30.6700 186.6666
30.6800 166.6666
30.6900 186.6666
30.7000 120.0000
30.7100 113.3334
30.7200 53.3334
30.7300 26.6666
30.7400 80.0000
30.7500 46.6666
30.7600 46.6666
30.7700 60.0000
30.7800 66.6666
30.7900 40.0000
30.8000 40.0000
30.8100 40.0000
30.8200 53.3334
30.8300 66.6666
30.8400 40.0000
30.8500 40.0000
30.8600 33.3334
30.8700 40.0000
30.8800 46.6666
30.8900 73.3334
30.9000 53.3334
30.9100 86.6666
30.9200 60.0000
30.9300 40.0000
30.9400 26.6666
30.9500 60.0000
30.9600 60.0000
30.9700 53.3334
30.9800 66.6666
30.9900 40.0000
31.0000 93.3334
31.0100 53.3334
31.0200 53.3334
31.0300 40.0000
31.0400 66.6666
31.0500 26.6666
31.0600 53.3334
31.0700 40.0000
31.0800 13.3334
31.0900 46.6666
31.1000 60.0000
31.1100 53.3334
31.1200 40.0000
31.1300 86.6666
31.1400 60.0000
31.1500 20.0000
31.1600 33.3334
31.1700 46.6666
31.1800 80.0000
31.1900 73.3334
31.2000 80.0000
31.2100 53.3334
31.2200 53.3334
31.2300 46.6666
31.2400 113.3334
31.2500 46.6666
31.2600 53.3334
31.2700 66.6666
31.2800 40.0000
31.2900 66.6666
31.3000 73.3334
31.3100 86.6666
31.3200 40.0000
31.3300 66.6666
31.3400 66.6666
31.3500 80.0000
31.3600 93.3334
31.3700 73.3334
31.3800 40.0000
31.3900 53.3334
31.4000 53.3334
31.4100 73.3334
31.4200 53.3334
31.4300 60.0000
31.4400 46.6666
31.4500 60.0000
31.4600 66.6666
31.4700 46.6666
31.4800 60.0000
31.4900 100.0000
31.5000 153.3334
31.5100 126.6666
31.5200 120.0000
31.5300 133.3334
31.5400 166.6666
31.5500 100.0000
31.5600 113.3334
31.5700 120.0000
31.5800 106.6666
31.5900 100.0000
31.6000 133.3334
31.6100 93.3334
31.6200 106.6666
31.6300 106.6666
31.6400 33.3334
31.6500 40.0000
31.6600 100.0000
31.6700 73.3334
31.6800 53.3334
31.6900 73.3334
31.7000 100.0000
31.7100 60.0000
31.7200 66.6666
31.7300 113.3334
31.7400 33.3334
31.7500 60.0000
31.7600 46.6666
31.7700 80.0000
31.7800 33.3334
31.7900 53.3334
31.8000 73.3334
31.8100 66.6666
31.8200 46.6666
31.8300 53.3334
31.8400 60.0000
31.8500 46.6666
31.8600 46.6666
31.8700 40.0000
31.8800 53.3334
31.8900 66.6666
31.9000 80.0000
31.9100 86.6666
31.9200 66.6666
31.9300 80.0000
31.9400 66.6666
31.9500 46.6666
31.9600 73.3334
31.9700 26.6666
31.9800 40.0000
31.9900 73.3334
32.0000 40.0000
32.0100 46.6666
32.0200 53.3334
32.0300 53.3334
32.0400 60.0000
32.0500 86.6666
32.0600 66.6666
32.0700 66.6666
32.0800 40.0000
32.0900 60.0000
32.1000 86.6666
32.1100 33.3334
32.1200 60.0000
32.1300 66.6666
32.1400 46.6666
32.1500 6.6666
32.1600 33.3334
32.1700 66.6666
32.1800 46.6666
32.1900 46.6666
32.2000 46.6666
32.2100 66.6666
32.2200 60.0000
32.2300 53.3334
32.2400 26.6666
32.2500 66.6666
32.2600 80.0000
32.2700 66.6666
32.2800 66.6666
32.2900 73.3334
32.3000 40.0000
32.3100 46.6666
32.3200 66.6666
32.3300 80.0000
32.3400 60.0000
32.3500 100.0000
32.3600 46.6666
32.3700 60.0000
32.3800 80.0000
32.3900 13.3334
32.4000 46.6666
32.4100 53.3334
32.4200 53.3334
32.4300 46.6666
32.4400 53.3334
32.4500 53.3334
32.4600 6.6666
32.4700 60.0000
32.4800 33.3334
32.4900 66.6666
32.5000 86.6666
32.5100 13.3334
32.5200 60.0000
32.5300 40.0000
32.5400 60.0000
32.5500 60.0000
32.5600 60.0000
32.5700 60.0000
32.5800 66.6666
32.5900 40.0000
32.6000 60.0000
32.6100 46.6666
32.6200 46.6666
32.6300 46.6666
32.6400 53.3334
32.6500 40.0000
32.6600 80.0000
32.6700 73.3334
32.6800 53.3334
32.6900 60.0000
32.7000 120.0000
32.7100 140.0000
32.7200 126.6666
32.7300 140.0000
32.7400 160.0000
32.7500 133.3334
32.7600 73.3334
32.7700 73.3334
32.7800 66.6666
32.7900 53.3334
32.8000 66.6666
32.8100 133.3334
32.8200 46.6666
32.8300 126.6666
32.8400 93.3334
32.8500 113.3334
32.8600 120.0000
32.8700 166.6666
32.8800 153.3334
32.8900 80.0000
32.9000 100.0000
32.9100 86.6666
32.9200 73.3334
32.9300 60.0000
32.9400 60.0000
32.9500 53.3334
32.9600 53.3334
32.9700 40.0000
32.9800 80.0000
32.9900 60.0000
33.0000 73.3334
33.0100 33.3334
33.0200 66.6666
33.0300 26.6666
33.0400 33.3334
33.0500 66.6666
33.0600 40.0000
33.0700 33.3334
33.0800 53.3334
33.0900 40.0000
33.1000 46.6666
33.1100 53.3334
33.1200 60.0000
33.1300 40.0000
33.1400 33.3334
33.1500 46.6666
33.1600 53.3334
33.1700 20.0000
33.1800 60.0000
33.1900 46.6666
33.2000 53.3334
33.2100 53.3334
33.2200 73.3334
33.2300 53.3334
33.2400 33.3334
33.2500 60.0000
33.2600 60.0000
33.2700 80.0000
33.2800 53.3334
33.2900 93.3334
33.3000 53.3334
33.3100 73.3334
33.3200 46.6666
33.3300 40.0000
33.3400 60.0000
33.3500 80.0000
33.3600 86.6666
33.3700 46.6666
33.3800 40.0000
33.3900 80.0000
33.4000 26.6666
33.4100 40.0000
33.4200 60.0000
33.4300 80.0000
33.4400 53.3334
33.4500 46.6666
33.4600 26.6666
33.4700 80.0000
33.4800 40.0000
33.4900 53.3334
33.5000 26.6666
33.5100 60.0000
33.5200 93.3334
33.5300 46.6666
33.5400 80.0000
33.5500 53.3334
33.5600 60.0000
33.5700 73.3334
33.5800 66.6666
33.5900 60.0000
33.6000 66.6666
33.6100 33.3334
33.6200 53.3334
33.6300 60.0000
33.6400 53.3334
33.6500 66.6666
33.6600 46.6666
33.6700 66.6666
33.6800 60.0000
33.6900 60.0000
33.7000 60.0000
33.7100 60.0000
33.7200 60.0000
33.7300 73.3334
33.7400 93.3334
33.7500 66.6666
33.7600 40.0000
33.7700 60.0000
33.7800 53.3334
33.7900 33.3334
33.8000 40.0000
33.8100 80.0000
33.8200 100.0000
33.8300 73.3334
33.8400 60.0000
33.8500 60.0000
33.8600 13.3334
33.8700 40.0000
33.8800 66.6666
33.8900 80.0000
33.9000 66.6666
33.9100 60.0000
33.9200 53.3334
33.9300 53.3334
33.9400 86.6666
33.9500 46.6666
33.9600 40.0000
33.9700 46.6666
33.9800 66.6666
33.9900 26.6666
34.0000 53.3334
34.0100 86.6666
34.0200 66.6666
34.0300 73.3334
34.0400 60.0000
34.0500 60.0000
34.0600 80.0000
34.0700 80.0000
34.0800 86.6666
34.0900 80.0000
34.1000 93.3334
34.1100 53.3334
34.1200 66.6666
34.1300 86.6666
34.1400 53.3334
34.1500 73.3334
34.1600 46.6666
34.1700 106.6666
34.1800 53.3334
34.1900 66.6666
34.2000 80.0000
34.2100 66.6666
34.2200 53.3334
34.2300 86.6666
34.2400 66.6666
34.2500 46.6666
34.2600 73.3334
34.2700 53.3334
34.2800 106.6666
34.2900 60.0000
34.3000 106.6666
34.3100 53.3334
34.3200 100.0000
34.3300 46.6666
34.3400 53.3334
34.3500 60.0000
34.3600 53.3334
34.3700 86.6666
34.3800 73.3334
34.3900 93.3334
34.4000 66.6666
34.4100 113.3334
34.4200 60.0000
34.4300 126.6666
34.4400 73.3334
34.4500 73.3334
34.4600 86.6666
34.4700 120.0000
34.4800 40.0000
34.4900 53.3334
34.5000 86.6666
34.5100 20.0000
34.5200 53.3334
34.5300 66.6666
34.5400 80.0000
34.5500 66.6666
34.5600 113.3334
34.5700 100.0000
34.5800 93.3334
34.5900 93.3334
34.6000 120.0000
34.6100 120.0000
34.6200 140.0000
34.6300 93.3334
34.6400 80.0000
34.6500 86.6666
34.6600 86.6666
34.6700 66.6666
34.6800 53.3334
34.6900 66.6666
34.7000 53.3334
34.7100 53.3334
34.7200 80.0000
34.7300 53.3334
34.7400 46.6666
34.7500 33.3334
34.7600 80.0000
34.7700 66.6666
34.7800 60.0000
34.7900 73.3334
34.8000 73.3334
34.8100 60.0000
34.8200 60.0000
34.8300 66.6666
34.8400 60.0000
34.8500 80.0000
34.8600 73.3334
34.8700 26.6666
34.8800 53.3334
34.8900 66.6666
34.9000 40.0000
34.9100 73.3334
34.9200 33.3334
34.9300 46.6666
34.9400 53.3334
34.9500 13.3334
34.9600 20.0000
34.9700 40.0000
34.9800 60.0000
34.9900 46.6666
35.0000 80.0000
35.0100 73.3334
35.0200 66.6666
35.0300 93.3334
35.0400 126.6666
35.0500 186.6666
35.0600 146.6666
35.0700 173.3334
35.0800 253.3334
35.0900 280.0000
35.1000 346.6666
35.1100 340.0000
35.1200 220.0000
35.1300 140.0000
35.1400 93.3334
35.1500 73.3334
35.1600 80.0000
35.1700 46.6666
35.1800 33.3334
35.1900 66.6666
35.2000 80.0000
35.2100 80.0000
35.2200 73.3334
35.2300 60.0000
35.2400 73.3334
35.2500 73.3334
35.2600 60.0000
35.2700 93.3334
35.2800 60.0000
35.2900 93.3334
35.3000 93.3334
35.3100 93.3334
35.3200 106.6666
35.3300 93.3334
35.3400 146.6666
35.3500 106.6666
35.3600 113.3334
35.3700 106.6666
35.3800 53.3334
35.3900 106.6666
35.4000 80.0000
35.4100 93.3334
35.4200 73.3334
35.4300 73.3334
35.4400 93.3334
35.4500 120.0000
35.4600 73.3334
35.4700 53.3334
35.4800 73.3334
35.4900 60.0000
35.5000 60.0000
35.5100 93.3334
35.5200 93.3334
35.5300 120.0000
35.5400 126.6666
35.5500 60.0000
35.5600 46.6666
35.5700 60.0000
35.5800 86.6666
35.5900 80.0000
35.6000 100.0000
35.6100 93.3334
35.6200 80.0000
35.6300 93.3334
35.6400 46.6666
35.6500 66.6666
35.6600 73.3334
35.6700 93.3334
35.6800 66.6666
35.6900 73.3334
35.7000 73.3334
35.7100 33.3334
35.7200 53.3334
35.7300 60.0000
35.7400 66.6666
35.7500 60.0000
35.7600 53.3334
35.7700 46.6666
35.7800 46.6666
35.7900 40.0000
35.8000 40.0000
35.8100 80.0000
35.8200 66.6666
35.8300 80.0000
35.8400 53.3334
35.8500 86.6666
35.8600 46.6666
35.8700 46.6666
35.8800 80.0000
35.8900 60.0000
35.9000 40.0000
35.9100 73.3334
35.9200 106.6666
35.9300 106.6666
35.9400 120.0000
35.9500 213.3334
35.9600 260.0000
35.9700 340.0000
35.9800 400.0000
35.9900 326.6666
36.0000 306.6666
36.0100 346.6666
36.0200 186.6666
36.0300 133.3334
36.0400 93.3334
36.0500 60.0000
36.0600 66.6666
36.0700 86.6666
36.0800 106.6666
36.0900 146.6666
36.1000 146.6666
36.1100 140.0000
36.1200 233.3334
36.1300 260.0000
36.1400 226.6666
36.1500 293.3334
36.1600 320.0000
36.1700 326.6666
36.1800 220.0000
36.1900 113.3334
36.2000 86.6666
36.2100 86.6666
36.2200 80.0000
36.2300 73.3334
36.2400 73.3334
36.2500 73.3334
36.2600 73.3334
36.2700 60.0000
36.2800 80.0000
36.2900 66.6666
36.3000 80.0000
36.3100 73.3334
36.3200 100.0000
36.3300 93.3334
36.3400 66.6666
36.3500 80.0000
36.3600 93.3334
36.3700 46.6666
36.3800 53.3334
36.3900 53.3334
36.4000 86.6666
36.4100 46.6666
36.4200 60.0000
36.4300 106.6666
36.4400 60.0000
36.4500 53.3334
36.4600 86.6666
36.4700 73.3334
36.4800 66.6666
36.4900 66.6666
36.5000 80.0000
36.5100 73.3334
36.5200 80.0000
36.5300 100.0000
36.5400 80.0000
36.5500 86.6666
36.5600 100.0000
36.5700 73.3334
36.5800 46.6666
36.5900 46.6666
36.6000 80.0000
36.6100 40.0000
36.6200 46.6666
36.6300 66.6666
36.6400 60.0000
36.6500 26.6666
36.6600 113.3334
36.6700 80.0000
36.6800 93.3334
36.6900 73.3334
36.7000 86.6666
36.7100 60.0000
36.7200 53.3334
36.7300 66.6666
36.7400 80.0000
36.7500 73.3334
36.7600 120.0000
36.7700 86.6666
36.7800 86.6666
36.7900 100.0000
36.8000 93.3334
36.8100 60.0000
36.8200 86.6666
36.8300 93.3334
36.8400 86.6666
36.8500 53.3334
36.8600 73.3334
36.8700 86.6666
36.8800 40.0000
36.8900 106.6666
36.9000 146.6666
36.9100 113.3334
36.9200 173.3334
36.9300 126.6666
36.9400 106.6666
36.9500 126.6666
36.9600 106.6666
36.9700 133.3334
36.9800 80.0000
36.9900 113.3334
37.0000 73.3334
37.0100 93.3334
37.0200 133.3334
37.0300 166.6666
37.0400 186.6666
37.0500 186.6666
37.0600 293.3334
37.0700 280.0000
37.0800 366.6666
37.0900 393.3334
37.1000 373.3334
37.1100 220.0000
37.1200 133.3334
37.1300 160.0000
37.1400 93.3334
37.1500 73.3334
37.1600 86.6666
37.1700 53.3334
37.1800 113.3334
37.1900 93.3334
37.2000 93.3334
37.2100 73.3334
37.2200 60.0000
37.2300 66.6666
37.2400 73.3334
37.2500 126.6666
37.2600 133.3334
37.2700 86.6666
37.2800 86.6666
37.2900 100.0000
37.3000 93.3334
37.3100 46.6666
37.3200 60.0000
37.3300 73.3334
37.3400 100.0000
37.3500 93.3334
37.3600 86.6666
37.3700 80.0000
37.3800 80.0000
37.3900 73.3334
37.4000 66.6666
37.4100 86.6666
37.4200 93.3334
37.4300 113.3334
37.4400 133.3334
37.4500 73.3334
37.4600 86.6666
37.4700 93.3334
37.4800 100.0000
37.4900 80.0000
37.5000 60.0000
37.5100 126.6666
37.5200 106.6666
37.5300 93.3334
37.5400 120.0000
37.5500 106.6666
37.5600 80.0000
37.5700 100.0000
37.5800 126.6666
37.5900 133.3334
37.6000 73.3334
37.6100 173.3334
37.6200 213.3334
37.6300 173.3334
37.6400 213.3334
37.6500 313.3334
37.6600 386.6666
37.6700 400.0000
37.6800 526.6666
37.6900 640.0000
37.7000 933.3334
37.7100 960.0000
37.7200 1053.3334
37.7300 1200.0000
37.7400 1206.6666
37.7500 1173.3334
37.7600 1680.0000
37.7700 1913.3334
37.7800 1953.3334
37.7900 2240.0000
37.8000 2360.0000
37.8100 2240.0000
37.8200 1933.3334
37.8300 1700.0000
37.8400 1566.6666
37.8500 1400.0000
37.8600 1413.3334
37.8700 966.6666
37.8800 686.6666
37.8900 433.3334
37.9000 373.3334
37.9100 253.3334
37.9200 233.3334
37.9300 186.6666
37.9400 166.6666
37.9500 106.6666
37.9600 113.3334
37.9700 86.6666
37.9800 133.3334
37.9900 66.6666
38.0000 66.6666
38.0100 100.0000
38.0200 73.3334
38.0300 86.6666
38.0400 153.3334
38.0500 100.0000
38.0600 93.3334
38.0700 100.0000
38.0800 106.6666
38.0900 100.0000
38.1000 106.6666
38.1100 86.6666
38.1200 80.0000
38.1300 126.6666
38.1400 120.0000
38.1500 93.3334
38.1600 100.0000
38.1700 106.6666
38.1800 113.3334
38.1900 120.0000
38.2000 153.3334
38.2100 140.0000
38.2200 193.3334
38.2300 166.6666
38.2400 213.3334
38.2500 413.3334
38.2600 460.0000
38.2700 753.3334
38.2800 926.6666
38.2900 1233.3334
38.3000 1206.6666
38.3100 1260.0000
38.3200 1320.0000
38.3300 1786.6666
38.3400 2253.3334
38.3500 3180.0000
38.3600 4006.6666
38.3700 3946.6666
38.3800 4353.3334
38.3900 4006.6666
38.4000 3553.3334
38.4100 2140.0000
38.4200 1340.0000
38.4300 780.0000
38.4400 466.6666
38.4500 306.6666
38.4600 146.6666
38.4700 233.3334
38.4800 133.3334
38.4900 133.3334
38.5000 126.6666
38.5100 106.6666
38.5200 93.3334
38.5300 140.0000
38.5400 120.0000
38.5500 140.0000
38.5600 126.6666
38.5700 80.0000
38.5800 106.6666
38.5900 86.6666
38.6000 106.6666
38.6100 126.6666
38.6200 106.6666
38.6300 93.3334
38.6400 100.0000
38.6500 106.6666
38.6600 106.6666
38.6700 73.3334
38.6800 146.6666
38.6900 86.6666
38.7000 60.0000
38.7100 73.3334
38.7200 120.0000
38.7300 93.3334
38.7400 73.3334
38.7500 100.0000
38.7600 100.0000
38.7700 73.3334
38.7800 86.6666
38.7900 166.6666
38.8000 113.3334
38.8100 166.6666
38.8200 106.6666
38.8300 126.6666
38.8400 146.6666
38.8500 213.3334
38.8600 173.3334
38.8700 180.0000
38.8800 246.6666
38.8900 233.3334
38.9000 286.6666
38.9100 340.0000
38.9200 273.3334
38.9300 260.0000
38.9400 313.3334
38.9500 306.6666
38.9600 240.0000
38.9700 233.3334
38.9800 233.3334
38.9900 240.0000
39.0000 180.0000
39.0100 200.0000
39.0200 213.3334
39.0300 206.6666
39.0400 206.6666
39.0500 153.3334
39.0600 186.6666
39.0700 213.3334
39.0800 166.6666
39.0900 180.0000
39.1000 153.3334
39.1100 193.3334
39.1200 240.0000
39.1300 273.3334
39.1400 326.6666
39.1500 433.3334
39.1600 640.0000
39.1700 960.0000
39.1800 1220.0000
39.1900 1760.0000
39.2000 2560.0000
39.2100 2700.0000
39.2200 2666.6666
39.2300 2080.0000
39.2400 1486.6666
39.2500 1113.3334
39.2600 1106.6666
39.2700 753.3334
39.2800 420.0000
39.2900 380.0000
39.3000 266.6666
39.3100 273.3334
39.3200 200.0000
39.3300 180.0000
39.3400 233.3334
39.3500 226.6666
39.3600 240.0000
39.3700 266.6666
39.3800 200.0000
39.3900 246.6666
39.4000 246.6666
39.4100 380.0000
39.4200 360.0000
39.4300 446.6666
39.4400 500.0000
39.4500 640.0000
39.4600 680.0000
39.4700 893.3334
39.4800 1006.6666
39.4900 1193.3334
39.5000 1113.3334
39.5100 1353.3334
39.5200 1360.0000
39.5300 1473.3334
39.5400 1446.6666
39.5500 1580.0000
39.5600 1926.6666
39.5700 1633.3334
39.5800 1453.3334
39.5900 926.6666
39.6000 766.6666
39.6100 526.6666
39.6200 306.6666
39.6300 293.3334
39.6400 240.0000
39.6500 240.0000
39.6600 260.0000
39.6700 240.0000
39.6800 220.0000
39.6900 246.6666
39.7000 153.3334
39.7100 180.0000
39.7200 226.6666
39.7300 120.0000
39.7400 133.3334
39.7500 173.3334
39.7600 186.6666
39.7700 193.3334
39.7800 246.6666
39.7900 240.0000
39.8000 173.3334
39.8100 140.0000
39.8200 186.6666
39.8300 220.0000
39.8400 273.3334
39.8500 280.0000
39.8600 293.3334
39.8700 246.6666
39.8800 326.6666
39.8900 420.0000
39.9000 420.0000
39.9100 573.3334
39.9200 600.0000
39.9300 773.3334
39.9400 986.6666
39.9500 1326.6666
39.9600 1960.0000
39.9700 2666.6666
39.9800 3533.3334
39.9900 5280.0000
40.0000 8806.6666
40.0100 11833.3334
40.0200 14546.6666
40.0300 14146.6666
40.0400 11353.3334
40.0500 8046.6666
40.0600 5640.0000
40.0700 3373.3334
40.0800 2273.3334
40.0900 1433.3334
40.1000 980.0000
40.1100 820.0000
40.1200 780.0000
40.1300 766.6666
40.1400 640.0000
40.1500 593.3334
40.1600 546.6666
40.1700 486.6666
40.1800 313.3334
40.1900 266.6666
40.2000 246.6666
40.2100 280.0000
40.2200 200.0000
40.2300 186.6666
40.2400 186.6666
40.2500 173.3334
40.2600 220.0000
40.2700 273.3334
40.2800 466.6666
40.2900 413.3334
40.3000 626.6666
40.3100 726.6666
40.3200 733.3334
40.3300 660.0000
40.3400 633.3334
40.3500 520.0000
40.3600 380.0000
40.3700 340.0000
40.3800 220.0000
40.3900 200.0000
40.4000 160.0000
40.4100 106.6666
40.4200 100.0000
40.4300 113.3334
40.4400 86.6666
40.4500 146.6666
40.4600 86.6666
40.4700 80.0000
40.4800 120.0000
40.4900 106.6666
40.5000 113.3334
40.5100 73.3334
40.5200 73.3334
40.5300 100.0000
40.5400 126.6666
40.5500 113.3334
40.5600 100.0000
40.5700 113.3334
40.5800 73.3334
40.5900 80.0000
40.6000 93.3334
40.6100 60.0000
40.6200 60.0000
40.6300 80.0000
40.6400 86.6666
40.6500 80.0000
40.6600 60.0000
40.6700 120.0000
40.6800 80.0000
40.6900 140.0000
40.7000 126.6666
40.7100 86.6666
40.7200 93.3334
40.7300 46.6666
40.7400 80.0000
40.7500 53.3334
40.7600 53.3334
40.7700 66.6666
40.7800 66.6666
40.7900 100.0000
40.8000 106.6666
40.8100 60.0000
40.8200 106.6666
40.8300 93.3334
40.8400 73.3334
40.8500 53.3334
40.8600 126.6666
40.8700 100.0000
40.8800 100.0000
40.8900 66.6666
40.9000 53.3334
40.9100 80.0000
40.9200 86.6666
40.9300 86.6666
40.9400 80.0000
40.9500 53.3334
40.9600 80.0000
40.9700 73.3334
40.9800 66.6666
40.9900 66.6666
41.0000 100.0000
41.0100 46.6666
41.0200 53.3334
41.0300 106.6666
41.0400 120.0000
41.0500 146.6666
41.0600 153.3334
41.0700 133.3334
41.0800 166.6666
41.0900 126.6666
41.1000 146.6666
41.1100 193.3334
41.1200 160.0000
41.1300 126.6666
41.1400 146.6666
41.1500 173.3334
41.1600 113.3334
41.1700 153.3334
41.1800 146.6666
41.1900 133.3334
41.2000 140.0000
41.2100 146.6666
41.2200 93.3334
41.2300 60.0000
41.2400 100.0000
41.2500 80.0000
41.2600 66.6666
41.2700 66.6666
41.2800 80.0000
41.2900 73.3334
41.3000 60.0000
41.3100 100.0000
41.3200 86.6666
41.3300 53.3334
41.3400 73.3334
41.3500 93.3334
41.3600 66.6666
41.3700 66.6666
41.3800 46.6666
41.3900 40.0000
41.4000 80.0000
41.4100 113.3334
41.4200 100.0000
41.4300 100.0000
41.4400 86.6666
41.4500 126.6666
41.4600 113.3334
41.4700 100.0000
41.4800 153.3334
41.4900 193.3334
41.5000 153.3334
41.5100 186.6666
41.5200 160.0000
41.5300 153.3334
41.5400 160.0000
41.5500 86.6666
41.5600 93.3334
41.5700 40.0000
41.5800 100.0000
41.5900 113.3334
41.6000 73.3334
41.6100 40.0000
41.6200 60.0000
41.6300 73.3334
41.6400 46.6666
41.6500 60.0000
41.6600 106.6666
41.6700 86.6666
41.6800 86.6666
41.6900 113.3334
41.7000 73.3334
41.7100 100.0000
41.7200 93.3334
41.7300 140.0000
41.7400 126.6666
41.7500 166.6666
41.7600 193.3334
41.7700 213.3334
41.7800 220.0000
41.7900 220.0000
41.8000 166.6666
41.8100 193.3334
41.8200 93.3334
41.8300 86.6666
41.8400 60.0000
41.8500 33.3334
41.8600 80.0000
41.8700 73.3334
41.8800 60.0000
41.8900 86.6666
41.9000 66.6666
41.9100 53.3334
41.9200 66.6666
41.9300 73.3334
41.9400 120.0000
41.9500 113.3334
41.9600 86.6666
41.9700 73.3334
41.9800 120.0000
41.9900 86.6666
42.0000 100.0000
42.0100 86.6666
42.0200 93.3334
42.0300 80.0000
42.0400 86.6666
42.0500 80.0000
42.0600 100.0000
42.0700 106.6666
42.0800 86.6666
42.0900 186.6666
42.1000 106.6666
42.1100 73.3334
42.1200 146.6666
42.1300 206.6666
42.1400 233.3334
42.1500 266.6666
42.1600 406.6666
42.1700 340.0000
42.1800 333.3334
42.1900 326.6666
42.2000 340.0000
42.2100 240.0000
42.2200 233.3334
42.2300 220.0000
42.2400 140.0000
42.2500 160.0000
42.2600 146.6666
42.2700 153.3334
42.2800 153.3334
42.2900 73.3334
42.3000 86.6666
42.3100 73.3334
42.3200 106.6666
42.3300 100.0000
42.3400 80.0000
42.3500 80.0000
42.3600 86.6666
42.3700 53.3334
42.3800 73.3334
42.3900 86.6666
42.4000 40.0000
42.4100 113.3334
42.4200 113.3334
42.4300 100.0000
42.4400 106.6666
42.4500 120.0000
42.4600 80.0000
42.4700 80.0000
42.4800 66.6666
42.4900 100.0000
42.5000 80.0000
42.5100 86.6666
42.5200 106.6666
42.5300 80.0000
42.5400 73.3334
42.5500 93.3334
42.5600 73.3334
42.5700 100.0000
42.5800 73.3334
42.5900 106.6666
42.6000 66.6666
42.6100 93.3334
42.6200 73.3334
42.6300 100.0000
42.6400 106.6666
42.6500 106.6666
42.6600 120.0000
42.6700 133.3334
42.6800 93.3334
42.6900 206.6666
42.7000 140.0000
42.7100 273.3334
42.7200 293.3334
42.7300 333.3334
42.7400 366.6666
42.7500 446.6666
42.7600 346.6666
42.7700 333.3334
42.7800 340.0000
42.7900 453.3334
42.8000 326.6666
42.8100 293.3334
42.8200 246.6666
42.8300 166.6666
42.8400 113.3334
42.8500 106.6666
42.8600 93.3334
42.8700 53.3334
42.8800 86.6666
42.8900 73.3334
42.9000 100.0000
42.9100 106.6666
42.9200 80.0000
42.9300 73.3334
42.9400 26.6666
42.9500 66.6666
42.9600 73.3334
42.9700 66.6666
42.9800 86.6666
42.9900 40.0000
43.0000 60.0000
43.0100 46.6666
43.0200 53.3334
43.0300 53.3334
43.0400 80.0000
43.0500 86.6666
43.0600 73.3334
43.0700 46.6666
43.0800 86.6666
43.0900 80.0000
43.1000 86.6666
43.1100 80.0000
43.1200 100.0000
43.1300 106.6666
43.1400 120.0000
43.1500 93.3334
43.1600 93.3334
43.1700 106.6666
43.1800 86.6666
43.1900 113.3334
43.2000 60.0000
43.2100 66.6666
43.2200 66.6666
43.2300 53.3334
43.2400 100.0000
43.2500 80.0000
43.2600 86.6666
43.2700 80.0000
43.2800 46.6666
43.2900 60.0000
43.3000 66.6666
43.3100 53.3334
43.3200 93.3334
43.3300 66.6666
43.3400 46.6666
43.3500 80.0000
43.3600 106.6666
43.3700 33.3334
43.3800 80.0000
43.3900 133.3334
43.4000 100.0000
43.4100 93.3334
43.4200 40.0000
43.4300 80.0000
43.4400 53.3334
43.4500 73.3334
43.4600 80.0000
43.4700 100.0000
43.4800 80.0000
43.4900 80.0000
43.5000 46.6666
43.5100 86.6666
43.5200 53.3334
43.5300 66.6666
43.5400 40.0000
43.5500 53.3334
43.5600 66.6666
43.5700 66.6666
43.5800 80.0000
43.5900 106.6666
43.6000 66.6666
43.6100 40.0000
43.6200 66.6666
43.6300 80.0000
43.6400 86.6666
43.6500 100.0000
43.6600 60.0000
43.6700 93.3334
43.6800 120.0000
43.6900 160.0000
43.7000 146.6666
43.7100 233.3334
43.7200 273.3334
43.7300 280.0000
43.7400 273.3334
43.7500 220.0000
43.7600 146.6666
43.7700 113.3334
43.7800 60.0000
43.7900 126.6666
43.8000 66.6666
43.8100 106.6666
43.8200 106.6666
43.8300 80.0000
43.8400 46.6666
43.8500 93.3334
43.8600 106.6666
43.8700 93.3334
43.8800 66.6666
43.8900 100.0000
43.9000 53.3334
43.9100 100.0000
43.9200 53.3334
43.9300 93.3334
43.9400 73.3334
43.9500 86.6666
43.9600 86.6666
43.9700 93.3334
43.9800 120.0000
43.9900 93.3334
44.0000 46.6666
44.0100 73.3334
44.0200 86.6666
44.0300 53.3334
44.0400 66.6666
44.0500 80.0000
44.0600 126.6666
44.0700 93.3334
44.0800 100.0000
44.0900 146.6666
44.1000 100.0000
44.1100 120.0000
44.1200 133.3334
44.1300 93.3334
44.1400 120.0000
44.1500 220.0000
44.1600 140.0000
44.1700 200.0000
44.1800 226.6666
44.1900 220.0000
44.2000 306.6666
44.2100 373.3334
44.2200 513.3334
44.2300 473.3334
44.2400 500.0000
44.2500 453.3334
44.2600 573.3334
44.2700 646.6666
44.2800 693.3334
44.2900 646.6666
44.3000 693.3334
44.3100 773.3334
44.3200 746.6666
44.3300 686.6666
44.3400 440.0000
44.3500 340.0000
44.3600 346.6666
44.3700 220.0000
44.3800 313.3334
44.3900 200.0000
44.4000 160.0000
44.4100 113.3334
44.4200 106.6666
44.4300 100.0000
44.4400 160.0000
44.4500 193.3334
44.4600 140.0000
44.4700 160.0000
44.4800 140.0000
44.4900 133.3334
44.5000 100.0000
44.5100 113.3334
44.5200 93.3334
44.5300 93.3334
44.5400 100.0000
44.5500 126.6666
44.5600 120.0000
44.5700 60.0000
44.5800 93.3334
44.5900 86.6666
44.6000 100.0000
44.6100 126.6666
44.6200 73.3334
44.6300 40.0000
44.6400 66.6666
44.6500 120.0000
44.6600 53.3334
44.6700 100.0000
44.6800 126.6666
44.6900 46.6666
44.7000 66.6666
44.7100 80.0000
44.7200 93.3334
44.7300 60.0000
44.7400 60.0000
44.7500 73.3334
44.7600 80.0000
44.7700 193.3334
44.7800 113.3334
44.7900 113.3334
44.8000 100.0000
44.8100 160.0000
44.8200 313.3334
44.8300 373.3334
44.8400 440.0000
44.8500 500.0000
44.8600 606.6666
44.8700 726.6666
44.8800 620.0000
44.8900 580.0000
44.9000 526.6666
44.9100 506.6666
44.9200 393.3334
44.9300 293.3334
44.9400 266.6666
44.9500 100.0000
44.9600 60.0000
44.9700 106.6666
44.9800 140.0000
44.9900 133.3334
45.0000 193.3334
45.0100 166.6666
45.0200 146.6666
45.0300 146.6666
45.0400 93.3334
45.0500 126.6666
45.0600 60.0000
45.0700 106.6666
45.0800 60.0000
45.0900 100.0000
45.1000 106.6666
45.1100 86.6666
45.1200 100.0000
45.1300 80.0000
45.1400 53.3334
45.1500 86.6666
45.1600 80.0000
45.1700 60.0000
45.1800 60.0000
45.1900 80.0000
45.2000 73.3334
45.2100 60.0000
45.2200 73.3334
45.2300 66.6666
45.2400 93.3334
45.2500 120.0000
45.2600 93.3334
45.2700 66.6666
45.2800 53.3334
45.2900 93.3334
45.3000 66.6666
45.3100 113.3334
45.3200 53.3334
45.3300 73.3334
45.3400 80.0000
45.3500 66.6666
45.3600 80.0000
45.3700 106.6666
45.3800 86.6666
45.3900 126.6666
45.4000 126.6666
45.4100 86.6666
45.4200 86.6666
45.4300 140.0000
45.4400 66.6666
45.4500 60.0000
45.4600 80.0000
45.4700 106.6666
45.4800 73.3334
45.4900 60.0000
45.5000 66.6666
45.5100 86.6666
45.5200 86.6666
45.5300 100.0000
45.5400 46.6666
45.5500 66.6666
45.5600 106.6666
45.5700 93.3334
45.5800 100.0000
45.5900 160.0000
45.6000 120.0000
45.6100 153.3334
45.6200 120.0000
45.6300 193.3334
45.6400 166.6666
45.6500 133.3334
45.6600 140.0000
45.6700 126.6666
45.6800 106.6666
45.6900 146.6666
45.7000 106.6666
45.7100 120.0000
45.7200 133.3334
45.7300 120.0000
45.7400 86.6666
45.7500 126.6666
45.7600 140.0000
45.7700 120.0000
45.7800 166.6666
45.7900 206.6666
45.8000 213.3334
45.8100 233.3334
45.8200 260.0000
45.8300 273.3334
45.8400 280.0000
45.8500 393.3334
45.8600 566.6666
45.8700 853.3334
45.8800 1133.3334
45.8900 1733.3334
45.9000 2780.0000
45.9100 3326.6666
45.9200 3800.0000
45.9300 3273.3334
45.9400 2120.0000
45.9500 1560.0000
45.9600 1253.3334
45.9700 833.3334
45.9800 646.6666
45.9900 520.0000
46.0000 366.6666
46.0100 300.0000
46.0200 280.0000
46.0300 346.6666
46.0400 326.6666
46.0500 240.0000
46.0600 226.6666
46.0700 273.3334
46.0800 380.0000
46.0900 286.6666
46.1000 466.6666
46.1100 566.6666
46.1200 620.0000
46.1300 906.6666
46.1400 1320.0000
46.1500 1626.6666
46.1600 1580.0000
46.1700 1053.3334
46.1800 646.6666
46.1900 553.3334
46.2000 526.6666
46.2100 473.3334
46.2200 466.6666
46.2300 386.6666
46.2400 326.6666
46.2500 473.3334
46.2600 473.3334
46.2700 526.6666
46.2800 613.3334
46.2900 520.0000
46.3000 540.0000
46.3100 360.0000
46.3200 406.6666
46.3300 313.3334
46.3400 213.3334
46.3500 186.6666
46.3600 100.0000
46.3700 113.3334
46.3800 120.0000
46.3900 106.6666
46.4000 120.0000
46.4100 100.0000
46.4200 53.3334
46.4300 93.3334
46.4400 106.6666
46.4500 126.6666
46.4600 60.0000
46.4700 73.3334
46.4800 113.3334
46.4900 93.3334
46.5000 73.3334
46.5100 66.6666
46.5200 53.3334
46.5300 66.6666
46.5400 86.6666
46.5500 80.0000
46.5600 53.3334
46.5700 86.6666
46.5800 80.0000
46.5900 60.0000
46.6000 86.6666
46.6100 66.6666
46.6200 60.0000
46.6300 66.6666
46.6400 66.6666
46.6500 53.3334
46.6600 53.3334
46.6700 86.6666
46.6800 73.3334
46.6900 93.3334
46.7000 73.3334
46.7100 73.3334
46.7200 33.3334
46.7300 80.0000
46.7400 80.0000
46.7500 86.6666
46.7600 180.0000
46.7700 140.0000
46.7800 246.6666
46.7900 286.6666
46.8000 293.3334
46.8100 346.6666
46.8200 373.3334
46.8300 473.3334
46.8400 646.6666
46.8500 733.3334
46.8600 966.6666
46.8700 1113.3334
46.8800 1200.0000
46.8900 900.0000
46.9000 580.0000
46.9100 440.0000
46.9200 280.0000
46.9300 146.6666
46.9400 140.0000
46.9500 140.0000
46.9600 93.3334
46.9700 80.0000
46.9800 93.3334
46.9900 133.3334
47.0000 73.3334
47.0100 86.6666
47.0200 60.0000
47.0300 93.3334
47.0400 126.6666
47.0500 80.0000
47.0600 93.3334
47.0700 86.6666
47.0800 93.3334
47.0900 66.6666
47.1000 106.6666
47.1100 100.0000
47.1200 166.6666
47.1300 233.3334
47.1400 220.0000
47.1500 240.0000
47.1600 253.3334
47.1700 506.6666
47.1800 513.3334
47.1900 713.3334
47.2000 560.0000
47.2100 546.6666
47.2200 473.3334
47.2300 360.0000
47.2400 280.0000
47.2500 280.0000
47.2600 206.6666
47.2700 213.3334
47.2800 246.6666
47.2900 140.0000
47.3000 173.3334
47.3100 166.6666
47.3200 133.3334
47.3300 113.3334
47.3400 93.3334
47.3500 60.0000
47.3600 60.0000
47.3700 86.6666
47.3800 80.0000
47.3900 73.3334
47.4000 66.6666
47.4100 80.0000
47.4200 93.3334
47.4300 100.0000
47.4400 53.3334
47.4500 80.0000
47.4600 73.3334
47.4700 106.6666
47.4800 93.3334
47.4900 66.6666
47.5000 73.3334
47.5100 86.6666
47.5200 66.6666
47.5300 80.0000
47.5400 66.6666
47.5500 53.3334
47.5600 106.6666
47.5700 106.6666
47.5800 113.3334
47.5900 93.3334
47.6000 146.6666
47.6100 253.3334
47.6200 213.3334
47.6300 266.6666
47.6400 200.0000
47.6500 366.6666
47.6600 320.0000
47.6700 280.0000
47.6800 213.3334
47.6900 273.3334
47.7000 360.0000
47.7100 320.0000
47.7200 393.3334
47.7300 573.3334
47.7400 726.6666
47.7500 740.0000
47.7600 886.6666
47.7700 700.0000
47.7800 573.3334
47.7900 340.0000
47.8000 293.3334
47.8100 226.6666
47.8200 166.6666
47.8300 186.6666
47.8400 86.6666
47.8500 100.0000
47.8600 120.0000
47.8700 80.0000
47.8800 106.6666
47.8900 133.3334
47.9000 160.0000
47.9100 93.3334
47.9200 140.0000
47.9300 160.0000
47.9400 80.0000
47.9500 53.3334
47.9600 60.0000
47.9700 60.0000
47.9800 86.6666
47.9900 73.3334
48.0000 73.3334
48.0100 93.3334
48.0200 100.0000
48.0300 106.6666
48.0400 153.3334
48.0500 120.0000
48.0600 173.3334
48.0700 180.0000
48.0800 220.0000
48.0900 286.6666
48.1000 453.3334
48.1100 453.3334
48.1200 526.6666
48.1300 446.6666
48.1400 360.0000
48.1500 346.6666
48.1600 226.6666
48.1700 193.3334
48.1800 213.3334
48.1900 186.6666
48.2000 173.3334
48.2100 166.6666
48.2200 186.6666
48.2300 166.6666
48.2400 213.3334
48.2500 240.0000
48.2600 286.6666
48.2700 520.0000
48.2800 726.6666
48.2900 840.0000
48.3000 686.6666
48.3100 806.6666
48.3200 713.3334
48.3300 573.3334
48.3400 746.6666
48.3500 593.3334
48.3600 593.3334
48.3700 566.6666
48.3800 500.0000
48.3900 453.3334
48.4000 386.6666
48.4100 373.3334
48.4200 260.0000
48.4300 200.0000
48.4400 180.0000
48.4500 126.6666
48.4600 133.3334
48.4700 113.3334
48.4800 86.6666
48.4900 40.0000
48.5000 46.6666
48.5100 60.0000
48.5200 73.3334
48.5300 86.6666
48.5400 133.3334
48.5500 60.0000
48.5600 80.0000
48.5700 53.3334
48.5800 80.0000
48.5900 73.3334
48.6000 66.6666
48.6100 86.6666
48.6200 80.0000
48.6300 26.6666
48.6400 40.0000
48.6500 86.6666
48.6600 80.0000
48.6700 86.6666
48.6800 60.0000
48.6900 46.6666
48.7000 53.3334
48.7100 86.6666
48.7200 46.6666
48.7300 33.3334
48.7400 66.6666
48.7500 33.3334
48.7600 33.3334
48.7700 60.0000
48.7800 46.6666
48.7900 40.0000
48.8000 26.6666
48.8100 66.6666
48.8200 66.6666
48.8300 40.0000
48.8400 33.3334
48.8500 26.6666
48.8600 26.6666
48.8700 53.3334
48.8800 106.6666
48.8900 60.0000
48.9000 60.0000
48.9100 60.0000
48.9200 40.0000
48.9300 53.3334
48.9400 60.0000
48.9500 86.6666
48.9600 46.6666
48.9700 86.6666
48.9800 53.3334
48.9900 93.3334
49.0000 100.0000
49.0100 100.0000
49.0200 93.3334
49.0300 66.6666
49.0400 73.3334
49.0500 93.3334
49.0600 106.6666
49.0700 86.6666
49.0800 186.6666
49.0900 220.0000
49.1000 173.3334
49.1100 280.0000
49.1200 246.6666
49.1300 340.0000
49.1400 346.6666
49.1500 266.6666
49.1600 213.3334
49.1700 226.6666
49.1800 180.0000
49.1900 106.6666
49.2000 140.0000
49.2100 100.0000
49.2200 93.3334
49.2300 80.0000
49.2400 53.3334
49.2500 46.6666
49.2600 66.6666
49.2700 46.6666
49.2800 60.0000
49.2900 66.6666
49.3000 80.0000
49.3100 40.0000
49.3200 40.0000
49.3300 46.6666
49.3400 33.3334
49.3500 53.3334
49.3600 60.0000
49.3700 60.0000
49.3800 46.6666
49.3900 60.0000
49.4000 33.3334
49.4100 53.3334
49.4200 60.0000
49.4300 40.0000
49.4400 53.3334
49.4500 46.6666
49.4600 60.0000
49.4700 73.3334
49.4800 40.0000
49.4900 66.6666
49.5000 80.0000
49.5100 66.6666
49.5200 113.3334
49.5300 113.3334
49.5400 133.3334
49.5500 260.0000
49.5600 300.0000
49.5700 260.0000
49.5800 373.3334
49.5900 246.6666
49.6000 200.0000
49.6100 153.3334
49.6200 113.3334
49.6300 80.0000
49.6400 46.6666
49.6500 66.6666
49.6600 33.3334
49.6700 33.3334
49.6800 60.0000
49.6900 80.0000
49.7000 46.6666
49.7100 26.6666
49.7200 46.6666
49.7300 46.6666
49.7400 60.0000
49.7500 53.3334
49.7600 66.6666
49.7700 66.6666
49.7800 40.0000
49.7900 33.3334
49.8000 53.3334
49.8100 33.3334
49.8200 53.3334
49.8300 46.6666
49.8400 46.6666
49.8500 60.0000
49.8600 46.6666
49.8700 53.3334
49.8800 60.0000
49.8900 53.3334
49.9000 53.3334
49.9100 53.3334
49.9200 46.6666
49.9300 60.0000
49.9400 53.3334
49.9500 33.3334
49.9600 66.6666
49.9700 26.6666
49.9800 33.3334
49.9900 66.6666
50.0000 46.6666
50.0100 20.0000
50.0200 66.6666
50.0300 60.0000
50.0400 33.3334
50.0500 60.0000
50.0600 80.0000
50.0700 73.3334
50.0800 93.3334
50.0900 73.3334
50.1000 73.3334
50.1100 113.3334
50.1200 73.3334
50.1300 80.0000
50.1400 73.3334
50.1500 73.3334
50.1600 40.0000
50.1700 53.3334
50.1800 46.6666
50.1900 46.6666
50.2000 60.0000
50.2100 93.3334
50.2200 33.3334
50.2300 73.3334
50.2400 100.0000
50.2500 180.0000
50.2600 280.0000
50.2700 286.6666
50.2800 420.0000
50.2900 393.3334
50.3000 373.3334
50.3100 360.0000
50.3200 273.3334
50.3300 126.6666
50.3400 80.0000
50.3500 86.6666
50.3600 93.3334
50.3700 60.0000
50.3800 66.6666
50.3900 100.0000
50.4000 100.0000
50.4100 133.3334
50.4200 233.3334
50.4300 280.0000
50.4400 333.3334
50.4500 326.6666
50.4600 326.6666
50.4700 206.6666
50.4800 153.3334
50.4900 140.0000
50.5000 46.6666
50.5100 53.3334
50.5200 53.3334
50.5300 53.3334
50.5400 46.6666
50.5500 40.0000
50.5600 53.3334
50.5700 13.3334
50.5800 40.0000
50.5900 53.3334
50.6000 20.0000
50.6100 20.0000
50.6200 66.6666
50.6300 80.0000
50.6400 86.6666
50.6500 100.0000
50.6600 120.0000
50.6700 80.0000
50.6800 160.0000
50.6900 186.6666
50.7000 120.0000
50.7100 133.3334
50.7200 126.6666
50.7300 133.3334
50.7400 153.3334
50.7500 186.6666
50.7600 133.3334
50.7700 93.3334
50.7800 100.0000
50.7900 86.6666
50.8000 86.6666
50.8100 106.6666
50.8200 66.6666
50.8300 106.6666
50.8400 80.0000
50.8500 80.0000
50.8600 46.6666
50.8700 53.3334
50.8800 60.0000
50.8900 46.6666
50.9000 26.6666
50.9100 26.6666
50.9200 53.3334
50.9300 40.0000
50.9400 6.6666
50.9500 46.6666
50.9600 26.6666
50.9700 40.0000
50.9800 60.0000
50.9900 26.6666
51.0000 46.6666
51.0100 46.6666
51.0200 20.0000
51.0300 46.6666
51.0400 13.3334
51.0500 20.0000
51.0600 26.6666
51.0700 40.0000
51.0800 46.6666
51.0900 33.3334
51.1000 53.3334
51.1100 33.3334
51.1200 46.6666
51.1300 53.3334
51.1400 33.3334
51.1500 26.6666
51.1600 26.6666
51.1700 20.0000
51.1800 33.3334
51.1900 33.3334
51.2000 40.0000
51.2100 33.3334
51.2200 26.6666
51.2300 46.6666
51.2400 33.3334
51.2500 20.0000
51.2600 40.0000
51.2700 40.0000
51.2800 46.6666
51.2900 20.0000
51.3000 26.6666
51.3100 33.3334
51.3200 46.6666
51.3300 73.3334
51.3400 13.3334
51.3500 46.6666
51.3600 60.0000
51.3700 60.0000
51.3800 66.6666
51.3900 20.0000
51.4000 20.0000
51.4100 40.0000
51.4200 26.6666
51.4300 26.6666
51.4400 46.6666
51.4500 80.0000
51.4600 66.6666
51.4700 73.3334
51.4800 40.0000
51.4900 20.0000
51.5000 46.6666
51.5100 33.3334
51.5200 53.3334
51.5300 33.3334
51.5400 20.0000
51.5500 53.3334
51.5600 53.3334
51.5700 53.3334
51.5800 53.3334
51.5900 13.3334
51.6000 20.0000
51.6100 13.3334
51.6200 40.0000
51.6300 40.0000
51.6400 33.3334
51.6500 33.3334
51.6600 6.6666
51.6700 20.0000
51.6800 40.0000
51.6900 46.6666
51.7000 40.0000
51.7100 20.0000
51.7200 26.6666
51.7300 33.3334
51.7400 46.6666
51.7500 26.6666
51.7600 20.0000
51.7700 26.6666
51.7800 53.3334
51.7900 53.3334
51.8000 53.3334
51.8100 13.3334
51.8200 53.3334
51.8300 26.6666
51.8400 20.0000
51.8500 80.0000
51.8600 86.6666
51.8700 60.0000
51.8800 40.0000
51.8900 40.0000
51.9000 26.6666
51.9100 33.3334
51.9200 80.0000
51.9300 53.3334
51.9400 20.0000
51.9500 60.0000
51.9600 53.3334
51.9700 40.0000
51.9800 106.6666
51.9900 46.6666
52.0000 33.3334
52.0100 20.0000
52.0200 60.0000
52.0300 53.3334
52.0400 26.6666
52.0500 13.3334
52.0600 46.6666
52.0700 40.0000
52.0800 126.6666
52.0900 46.6666
52.1000 33.3334
52.1100 46.6666
52.1200 60.0000
52.1300 60.0000
52.1400 60.0000
52.1500 20.0000
52.1600 46.6666
52.1700 53.3334
52.1800 60.0000
52.1900 46.6666
52.2000 53.3334
52.2100 46.6666
52.2200 80.0000
52.2300 60.0000
52.2400 80.0000
52.2500 80.0000
52.2600 53.3334
52.2700 73.3334
52.2800 120.0000
52.2900 73.3334
52.3000 86.6666
52.3100 93.3334
52.3200 100.0000
52.3300 20.0000
52.3400 73.3334
52.3500 60.0000
52.3600 40.0000
52.3700 26.6666
52.3800 33.3334
52.3900 40.0000
52.4000 33.3334
52.4100 33.3334
52.4200 46.6666
52.4300 53.3334
52.4400 26.6666
52.4500 20.0000
52.4600 26.6666
52.4700 26.6666
52.4800 20.0000
52.4900 40.0000
52.5000 13.3334
52.5100 26.6666
52.5200 26.6666
52.5300 73.3334
52.5400 53.3334
52.5500 33.3334
52.5600 93.3334
52.5700 60.0000
52.5800 33.3334
52.5900 26.6666
52.6000 26.6666
52.6100 40.0000
52.6200 46.6666
52.6300 40.0000
52.6400 26.6666
52.6500 33.3334
52.6600 40.0000
52.6700 40.0000
52.6800 53.3334
52.6900 46.6666
52.7000 60.0000
52.7100 40.0000
52.7200 46.6666
52.7300 40.0000
52.7400 26.6666
52.7500 20.0000
52.7600 20.0000
52.7700 33.3334
52.7800 13.3334
52.7900 20.0000
52.8000 33.3334
52.8100 53.3334
52.8200 53.3334
52.8300 33.3334
52.8400 20.0000
52.8500 6.6666
52.8600 26.6666
52.8700 33.3334
52.8800 13.3334
52.8900 53.3334
52.9000 33.3334
52.9100 66.6666
52.9200 20.0000
52.9300 40.0000
52.9400 26.6666
52.9500 33.3334
52.9600 26.6666
52.9700 20.0000
52.9800 40.0000
52.9900 66.6666
53.0000 46.6666
53.0100 26.6666
53.0200 20.0000
53.0300 6.6666
53.0400 13.3334
53.0500 20.0000
53.0600 40.0000
53.0700 33.3334
53.0800 26.6666
53.0900 60.0000
53.1000 40.0000
53.1100 53.3334
53.1200 46.6666
53.1300 33.3334
53.1400 53.3334
53.1500 86.6666
53.1600 113.3334
53.1700 120.0000
53.1800 146.6666
53.1900 93.3334
53.2000 66.6666
53.2100 100.0000
53.2200 113.3334
53.2300 86.6666
53.2400 93.3334
53.2500 100.0000
53.2600 106.6666
53.2700 60.0000
53.2800 33.3334
53.2900 20.0000
53.3000 40.0000
53.3100 26.6666
53.3200 6.6666
53.3300 40.0000
53.3400 53.3334
53.3500 33.3334
53.3600 20.0000
53.3700 20.0000
53.3800 6.6666
53.3900 40.0000
53.4000 20.0000
53.4100 46.6666
53.4200 13.3334
53.4300 26.6666
53.4400 26.6666
53.4500 73.3334
53.4600 113.3334
53.4700 106.6666
53.4800 73.3334
53.4900 53.3334
53.5000 46.6666
53.5100 26.6666
53.5200 66.6666
53.5300 40.0000
53.5400 20.0000
53.5500 26.6666
53.5600 33.3334
53.5700 46.6666
53.5800 13.3334
53.5900 53.3334
53.6000 20.0000
53.6100 20.0000
53.6200 60.0000
53.6300 33.3334
53.6400 46.6666
53.6500 80.0000
53.6600 53.3334
53.6700 100.0000
53.6800 186.6666
53.6900 186.6666
53.7000 173.3334
53.7100 100.0000
53.7200 46.6666
53.7300 60.0000
53.7400 46.6666
53.7500 53.3334
53.7600 60.0000
53.7700 26.6666
53.7800 46.6666
53.7900 40.0000
53.8000 53.3334
53.8100 73.3334
53.8200 80.0000
53.8300 40.0000
53.8400 73.3334
53.8500 73.3334
53.8600 33.3334
53.8700 53.3334
53.8800 20.0000
53.8900 40.0000
53.9000 53.3334
53.9100 26.6666
53.9200 46.6666
53.9300 33.3334
53.9400 26.6666
53.9500 40.0000
53.9600 26.6666
53.9700 53.3334
53.9800 26.6666
53.9900 46.6666
54.0000 20.0000
54.0100 13.3334
54.0200 46.6666
54.0300 20.0000
54.0400 40.0000
54.0500 46.6666
54.0600 20.0000
54.0700 33.3334
54.0800 33.3334
54.0900 13.3334
54.1000 20.0000
54.1100 26.6666
54.1200 13.3334
54.1300 20.0000
54.1400 20.0000
54.1500 40.0000
54.1600 26.6666
54.1700 46.6666
54.1800 6.6666
54.1900 40.0000
54.2000 26.6666
54.2100 26.6666
54.2200 46.6666
54.2300 20.0000
54.2400 26.6666
54.2500 20.0000
54.2600 60.0000
54.2700 86.6666
54.2800 93.3334
54.2900 80.0000
54.3000 113.3334
54.3100 53.3334
54.3200 66.6666
54.3300 53.3334
54.3400 53.3334
54.3500 46.6666
54.3600 20.0000
54.3700 46.6666
54.3800 46.6666
54.3900 20.0000
54.4000 66.6666
54.4100 20.0000
54.4200 53.3334
54.4300 53.3334
54.4400 33.3334
54.4500 66.6666
54.4600 66.6666
54.4700 40.0000
54.4800 60.0000
54.4900 73.3334
54.5000 20.0000
54.5100 33.3334
54.5200 40.0000
54.5300 66.6666
54.5400 20.0000
54.5500 60.0000
54.5600 0.0000
54.5700 13.3334
54.5800 26.6666
54.5900 40.0000
54.6000 46.6666
54.6100 20.0000
54.6200 20.0000
54.6300 13.3334
54.6400 20.0000
54.6500 33.3334
54.6600 40.0000
54.6700 13.3334
54.6800 26.6666
54.6900 33.3334
54.7000 26.6666
54.7100 46.6666
54.7200 60.0000
54.7300 26.6666
54.7400 26.6666
54.7500 26.6666
54.7600 6.6666
54.7700 13.3334
54.7800 33.3334
54.7900 46.6666
54.8000 40.0000
54.8100 26.6666
54.8200 26.6666
54.8300 26.6666
54.8400 33.3334
54.8500 20.0000
54.8600 46.6666
54.8700 13.3334
54.8800 73.3334
54.8900 46.6666
54.9000 13.3334
54.9100 26.6666
54.9200 33.3334
54.9300 26.6666
54.9400 33.3334
54.9500 53.3334
54.9600 6.6666
54.9700 40.0000
54.9800 40.0000
54.9900 40.0000
55.0000 33.3334
55.0100 13.3334
55.0200 40.0000
55.0300 20.0000
55.0400 13.3334
55.0500 33.3334
55.0600 60.0000
55.0700 20.0000
55.0800 46.6666
55.0900 53.3334
55.1000 33.3334
55.1100 33.3334
55.1200 20.0000
55.1300 33.3334
55.1400 13.3334
55.1500 26.6666
55.1600 33.3334
55.1700 33.3334
55.1800 26.6666
55.1900 40.0000
55.2000 20.0000
55.2100 6.6666
55.2200 33.3334
55.2300 46.6666
55.2400 20.0000
55.2500 53.3334
55.2600 0.0000
55.2700 26.6666
55.2800 26.6666
55.2900 40.0000
55.3000 46.6666
55.3100 20.0000
55.3200 6.6666
55.3300 26.6666
55.3400 33.3334
55.3500 20.0000
55.3600 40.0000
55.3700 33.3334
55.3800 26.6666
55.3900 33.3334
55.4000 33.3334
55.4100 20.0000
55.4200 40.0000
55.4300 20.0000
55.4400 26.6666
55.4500 26.6666
55.4600 40.0000
55.4700 26.6666
55.4800 33.3334
55.4900 60.0000
55.5000 33.3334
55.5100 53.3334
55.5200 13.3334
55.5300 33.3334
55.5400 46.6666
55.5500 66.6666
55.5600 46.6666
55.5700 66.6666
55.5800 46.6666
55.5900 46.6666
55.6000 80.0000
55.6100 40.0000
55.6200 46.6666
55.6300 66.6666
55.6400 40.0000
55.6500 26.6666
55.6600 53.3334
55.6700 40.0000
55.6800 66.6666
55.6900 46.6666
55.7000 33.3334
55.7100 40.0000
55.7200 66.6666
55.7300 20.0000
55.7400 26.6666
55.7500 60.0000
55.7600 33.3334
55.7700 13.3334
55.7800 26.6666
55.7900 53.3334
55.8000 33.3334
55.8100 40.0000
55.8200 26.6666
55.8300 13.3334
55.8400 33.3334
55.8500 26.6666
55.8600 26.6666
55.8700 26.6666
55.8800 40.0000
55.8900 60.0000
55.9000 33.3334
55.9100 46.6666
55.9200 33.3334
55.9300 26.6666
55.9400 33.3334
55.9500 40.0000
55.9600 46.6666
55.9700 33.3334
55.9800 73.3334
55.9900 100.0000
56.0000 106.6666
56.0100 126.6666
56.0200 133.3334
56.0300 113.3334
56.0400 126.6666
56.0500 153.3334
56.0600 93.3334
56.0700 53.3334
56.0800 100.0000
56.0900 46.6666
56.1000 33.3334
56.1100 80.0000
56.1200 53.3334
56.1300 53.3334
56.1400 40.0000
56.1500 40.0000
56.1600 66.6666
56.1700 40.0000
56.1800 40.0000
56.1900 46.6666
56.2000 53.3334
56.2100 40.0000
56.2200 40.0000
56.2300 26.6666
56.2400 53.3334
56.2500 46.6666
56.2600 60.0000
56.2700 40.0000
56.2800 46.6666
56.2900 46.6666
56.3000 40.0000
56.3100 106.6666
56.3200 113.3334
56.3300 140.0000
56.3400 213.3334
56.3500 266.6666
56.3600 240.0000
56.3700 293.3334
56.3800 300.0000
56.3900 193.3334
56.4000 113.3334
56.4100 60.0000
56.4200 73.3334
56.4300 46.6666
56.4400 80.0000
56.4500 33.3334
56.4600 40.0000
56.4700 33.3334
56.4800 26.6666
56.4900 26.6666
56.5000 26.6666
56.5100 46.6666
56.5200 33.3334
56.5300 20.0000
56.5400 26.6666
56.5500 6.6666
56.5600 6.6666
56.5700 20.0000
56.5800 40.0000
56.5900 40.0000
56.6000 33.3334
56.6100 46.6666
56.6200 53.3334
56.6300 66.6666
56.6400 33.3334
56.6500 20.0000
56.6600 26.6666
56.6700 33.3334
56.6800 46.6666
56.6900 26.6666
56.7000 26.6666
56.7100 33.3334
56.7200 13.3334
56.7300 33.3334
56.7400 33.3334
56.7500 40.0000
56.7600 6.6666
56.7700 6.6666
56.7800 40.0000
56.7900 40.0000
56.8000 40.0000
56.8100 40.0000
56.8200 26.6666
56.8300 26.6666
56.8400 60.0000
56.8500 40.0000
56.8600 40.0000
56.8700 46.6666
56.8800 53.3334
56.8900 73.3334
56.9000 26.6666
56.9100 60.0000
56.9200 66.6666
56.9300 40.0000
56.9400 73.3334
56.9500 40.0000
56.9600 40.0000
56.9700 46.6666
56.9800 60.0000
56.9900 73.3334
57.0000 66.6666
57.0100 73.3334
57.0200 73.3334
57.0300 106.6666
57.0400 60.0000
57.0500 73.3334
57.0600 73.3334
57.0700 66.6666
57.0800 86.6666
57.0900 66.6666
57.1000 126.6666
57.1100 106.6666
57.1200 106.6666
57.1300 100.0000
57.1400 66.6666
57.1500 80.0000
57.1600 46.6666
57.1700 80.0000
57.1800 80.0000
57.1900 66.6666
57.2000 60.0000
57.2100 53.3334
57.2200 66.6666
57.2300 40.0000
57.2400 53.3334
57.2500 53.3334
57.2600 40.0000
57.2700 33.3334
57.2800 120.0000
57.2900 113.3334
57.3000 86.6666
57.3100 166.6666
57.3200 313.3334
57.3300 533.3334
57.3400 566.6666
57.3500 586.6666
57.3600 706.6666
57.3700 473.3334
57.3800 326.6666
57.3900 246.6666
57.4000 180.0000
57.4100 113.3334
57.4200 106.6666
57.4300 100.0000
57.4400 86.6666
57.4500 73.3334
57.4600 33.3334
57.4700 46.6666
57.4800 60.0000
57.4900 46.6666
57.5000 53.3334
57.5100 33.3334
57.5200 53.3334
57.5300 40.0000
57.5400 46.6666
57.5500 33.3334
57.5600 20.0000
57.5700 33.3334
57.5800 46.6666
57.5900 33.3334
57.6000 46.6666
57.6100 33.3334
57.6200 26.6666
57.6300 40.0000
57.6400 40.0000
57.6500 20.0000
57.6600 26.6666
57.6700 46.6666
57.6800 40.0000
57.6900 13.3334
57.7000 53.3334
57.7100 53.3334
57.7200 60.0000
57.7300 80.0000
57.7400 26.6666
57.7500 40.0000
57.7600 53.3334
57.7700 40.0000
57.7800 60.0000
57.7900 73.3334
57.8000 133.3334
57.8100 113.3334
57.8200 166.6666
57.8300 66.6666
57.8400 60.0000
57.8500 46.6666
57.8600 53.3334
57.8700 40.0000
57.8800 26.6666
57.8900 26.6666
57.9000 26.6666
57.9100 20.0000
57.9200 46.6666
57.9300 26.6666
57.9400 46.6666
57.9500 26.6666
57.9600 40.0000
57.9700 20.0000
57.9800 13.3334
57.9900 33.3334
58.0000 46.6666
58.0100 33.3334
58.0200 66.6666
58.0300 53.3334
58.0400 53.3334
58.0500 100.0000
58.0600 153.3334
58.0700 120.0000
58.0800 106.6666
58.0900 120.0000
58.1000 86.6666
58.1100 66.6666
58.1200 60.0000
58.1300 60.0000
58.1400 60.0000
58.1500 26.6666
58.1600 33.3334
58.1700 40.0000
58.1800 33.3334
58.1900 13.3334
58.2000 33.3334
58.2100 40.0000
58.2200 46.6666
58.2300 13.3334
58.2400 33.3334
58.2500 53.3334
58.2600 33.3334
58.2700 13.3334
58.2800 33.3334
58.2900 26.6666
58.3000 13.3334
58.3100 6.6666
58.3200 13.3334
58.3300 20.0000
58.3400 0.0000
58.3500 26.6666
58.3600 33.3334
58.3700 26.6666
58.3800 6.6666
58.3900 20.0000
58.4000 20.0000
58.4100 40.0000
58.4200 13.3334
58.4300 26.6666
58.4400 20.0000
58.4500 40.0000
58.4600 40.0000
58.4700 26.6666
58.4800 6.6666
58.4900 0.0000
58.5000 13.3334
58.5100 13.3334
58.5200 13.3334
58.5300 26.6666
58.5400 60.0000
58.5500 13.3334
58.5600 40.0000
58.5700 46.6666
58.5800 26.6666
58.5900 40.0000
58.6000 33.3334
58.6100 33.3334
58.6200 40.0000
58.6300 13.3334
58.6400 20.0000
58.6500 46.6666
58.6600 20.0000
58.6700 46.6666
58.6800 26.6666
58.6900 33.3334
58.7000 53.3334
58.7100 53.3334
58.7200 26.6666
58.7300 40.0000
58.7400 46.6666
58.7500 26.6666
58.7600 53.3334
58.7700 33.3334
58.7800 53.3334
58.7900 40.0000
58.8000 40.0000
58.8100 53.3334
58.8200 53.3334
58.8300 40.0000
58.8400 20.0000
58.8500 66.6666
58.8600 120.0000
58.8700 93.3334
58.8800 93.3334
58.8900 60.0000
58.9000 40.0000
58.9100 26.6666
58.9200 40.0000
58.9300 33.3334
58.9400 20.0000
58.9500 26.6666
58.9600 60.0000
58.9700 26.6666
58.9800 20.0000
58.9900 13.3334
59.0000 20.0000
59.0100 33.3334
59.0200 26.6666
59.0300 80.0000
59.0400 26.6666
59.0500 26.6666
59.0600 26.6666
59.0700 33.3334
59.0800 13.3334
59.0900 20.0000
59.1000 33.3334
59.1100 33.3334
59.1200 33.3334
59.1300 40.0000
59.1400 20.0000
59.1500 20.0000
59.1600 60.0000
59.1700 40.0000
59.1800 40.0000
59.1900 60.0000
59.2000 26.6666
59.2100 40.0000
59.2200 53.3334
59.2300 40.0000
59.2400 80.0000
59.2500 66.6666
59.2600 93.3334
59.2700 80.0000
59.2800 40.0000
59.2900 53.3334
59.3000 26.6666
59.3100 33.3334
59.3200 46.6666
59.3300 26.6666
59.3400 33.3334
59.3500 20.0000
59.3600 26.6666
59.3700 60.0000
59.3800 33.3334
59.3900 40.0000
59.4000 26.6666
59.4100 46.6666
59.4200 60.0000
59.4300 46.6666
59.4400 53.3334
59.4500 53.3334
59.4600 73.3334
59.4700 13.3334
59.4800 53.3334
59.4900 46.6666
59.5000 80.0000
59.5100 73.3334
59.5200 66.6666
59.5300 73.3334
59.5400 26.6666
59.5500 26.6666
59.5600 46.6666
59.5700 33.3334
59.5800 46.6666
59.5900 20.0000
59.6000 66.6666
59.6100 40.0000
59.6200 73.3334
59.6300 40.0000
59.6400 6.6666
59.6500 40.0000
59.6600 40.0000
59.6700 20.0000
59.6800 40.0000
59.6900 13.3334
59.7000 33.3334
59.7100 20.0000
59.7200 46.6666
59.7300 33.3334
59.7400 40.0000
59.7500 20.0000
59.7600 40.0000
59.7700 33.3334
59.7800 66.6666
59.7900 33.3334
59.8000 66.6666
59.8100 26.6666
59.8200 53.3334
59.8300 40.0000
59.8400 60.0000
59.8500 13.3334
59.8600 33.3334
59.8700 13.3334
59.8800 33.3334
59.8900 66.6666
59.9000 33.3334
59.9100 40.0000
59.9200 53.3334
59.9300 33.3334
59.9400 20.0000
59.9500 33.3334
59.9600 40.0000
59.9700 20.0000
59.9800 40.0000
59.9900 33.3334
60.0000 33.3334
60.0100 26.6666
60.0200 20.0000
60.0300 46.6666
60.0400 26.6666
60.0500 40.0000
60.0600 46.6666
60.0700 33.3334
60.0800 40.0000
60.0900 60.0000
60.1000 20.0000
60.1100 46.6666
60.1200 66.6666
60.1300 53.3334
60.1400 80.0000
60.1500 73.3334
60.1600 86.6666
60.1700 80.0000
60.1800 66.6666
60.1900 73.3334
60.2000 33.3334
60.2100 40.0000
60.2200 20.0000
60.2300 66.6666
60.2400 80.0000
60.2500 66.6666
60.2600 86.6666
60.2700 73.3334
60.2800 60.0000
60.2900 40.0000
60.3000 46.6666
60.3100 53.3334
60.3200 33.3334
60.3300 13.3334
60.3400 33.3334
60.3500 40.0000
60.3600 20.0000
60.3700 6.6666
60.3800 33.3334
60.3900 26.6666
60.4000 40.0000
60.4100 46.6666
60.4200 53.3334
60.4300 26.6666
60.4400 26.6666
60.4500 33.3334
60.4600 40.0000
60.4700 33.3334
60.4800 33.3334
60.4900 53.3334
60.5000 26.6666
60.5100 6.6666
60.5200 20.0000
60.5300 26.6666
60.5400 13.3334
60.5500 6.6666
60.5600 20.0000
60.5700 40.0000
60.5800 40.0000
60.5900 46.6666
60.6000 53.3334
60.6100 46.6666
60.6200 60.0000
60.6300 33.3334
60.6400 40.0000
60.6500 53.3334
60.6600 53.3334
60.6700 40.0000
60.6800 33.3334
60.6900 53.3334
60.7000 80.0000
60.7100 60.0000
60.7200 60.0000
60.7300 66.6666
60.7400 100.0000
60.7500 146.6666
60.7600 120.0000
60.7700 246.6666
60.7800 320.0000
60.7900 460.0000
60.8000 306.6666
60.8100 253.3334
60.8200 186.6666
60.8300 106.6666
60.8400 80.0000
60.8500 53.3334
60.8600 40.0000
60.8700 53.3334
60.8800 46.6666
60.8900 80.0000
60.9000 20.0000
60.9100 26.6666
60.9200 33.3334
60.9300 33.3334
60.9400 20.0000
60.9500 13.3334
60.9600 20.0000
60.9700 0.0000
60.9800 33.3334
60.9900 60.0000
61.0000 60.0000
61.0100 26.6666
61.0200 26.6666
61.0300 13.3334
61.0400 80.0000
61.0500 46.6666
61.0600 46.6666
61.0700 46.6666
61.0800 26.6666
61.0900 33.3334
61.1000 100.0000
61.1100 66.6666
61.1200 86.6666
61.1300 100.0000
61.1400 93.3334
61.1500 73.3334
61.1600 60.0000
61.1700 26.6666
61.1800 26.6666
61.1900 33.3334
61.2000 26.6666
61.2100 46.6666
61.2200 53.3334
61.2300 40.0000
61.2400 40.0000
61.2500 46.6666
61.2600 6.6666
61.2700 40.0000
61.2800 40.0000
61.2900 13.3334
61.3000 33.3334
61.3100 13.3334
61.3200 33.3334
61.3300 26.6666
61.3400 33.3334
61.3500 53.3334
61.3600 60.0000
61.3700 53.3334
61.3800 46.6666
61.3900 33.3334
61.4000 86.6666
61.4100 80.0000
61.4200 53.3334
61.4300 66.6666
61.4400 53.3334
61.4500 60.0000
61.4600 53.3334
61.4700 40.0000
61.4800 26.6666
61.4900 46.6666
61.5000 60.0000
61.5100 26.6666
61.5200 53.3334
61.5300 46.6666
61.5400 26.6666
61.5500 26.6666
61.5600 40.0000
61.5700 46.6666
61.5800 46.6666
61.5900 26.6666
61.6000 33.3334
61.6100 26.6666
61.6200 46.6666
61.6300 40.0000
61.6400 46.6666
61.6500 53.3334
61.6600 40.0000
61.6700 26.6666
61.6800 53.3334
61.6900 33.3334
61.7000 93.3334
61.7100 53.3334
61.7200 33.3334
61.7300 20.0000
61.7400 26.6666
61.7500 60.0000
61.7600 53.3334
61.7700 66.6666
61.7800 73.3334
61.7900 26.6666
61.8000 53.3334
61.8100 93.3334
61.8200 66.6666
61.8300 80.0000
61.8400 53.3334
61.8500 20.0000
61.8600 53.3334
61.8700 33.3334
61.8800 73.3334
61.8900 33.3334
61.9000 33.3334
61.9100 40.0000
61.9200 33.3334
61.9300 80.0000
61.9400 66.6666
61.9500 26.6666
61.9600 40.0000
61.9700 73.3334
61.9800 73.3334
61.9900 53.3334
62.0000 106.6666
62.0100 146.6666
62.0200 133.3334
62.0300 113.3334
62.0400 73.3334
62.0500 113.3334
62.0600 126.6666
62.0700 100.0000
62.0800 86.6666
62.0900 60.0000
62.1000 86.6666
62.1100 66.6666
62.1200 66.6666
62.1300 73.3334
62.1400 66.6666
62.1500 60.0000
62.1600 106.6666
62.1700 106.6666
62.1800 73.3334
62.1900 106.6666
62.2000 106.6666
62.2100 86.6666
62.2200 66.6666
62.2300 86.6666
62.2400 93.3334
62.2500 60.0000
62.2600 66.6666
62.2700 60.0000
62.2800 46.6666
62.2900 33.3334
62.3000 53.3334
62.3100 73.3334
62.3200 86.6666
62.3300 100.0000
62.3400 126.6666
62.3500 126.6666
62.3600 173.3334
62.3700 133.3334
62.3800 146.6666
62.3900 113.3334
62.4000 106.6666
62.4100 66.6666
62.4200 66.6666
62.4300 53.3334
62.4400 66.6666
62.4500 46.6666
62.4600 40.0000
62.4700 66.6666
62.4800 66.6666
62.4900 73.3334
62.5000 73.3334
62.5100 80.0000
62.5200 73.3334
62.5300 133.3334
62.5400 180.0000
62.5500 220.0000
62.5600 186.6666
62.5700 173.3334
62.5800 206.6666
62.5900 153.3334
62.6000 166.6666
62.6100 86.6666
62.6200 73.3334
62.6300 80.0000
62.6400 100.0000
62.6500 66.6666
62.6600 86.6666
62.6700 100.0000
62.6800 80.0000
62.6900 113.3334
62.7000 120.0000
62.7100 153.3334
62.7200 146.6666
62.7300 113.3334
62.7400 86.6666
62.7500 146.6666
62.7600 120.0000
62.7700 113.3334
62.7800 66.6666
62.7900 33.3334
62.8000 80.0000
62.8100 53.3334
62.8200 40.0000
62.8300 86.6666
62.8400 53.3334
62.8500 53.3334
62.8600 33.3334
62.8700 60.0000
62.8800 60.0000
62.8900 73.3334
62.9000 40.0000
62.9100 66.6666
62.9200 46.6666
62.9300 66.6666
62.9400 53.3334
62.9500 46.6666
62.9600 53.3334
62.9700 66.6666
62.9800 53.3334
62.9900 46.6666
63.0000 140.0000
63.0100 80.0000
63.0200 66.6666
63.0300 80.0000
63.0400 60.0000
63.0500 60.0000
63.0600 73.3334
63.0700 53.3334
63.0800 53.3334
63.0900 53.3334
63.1000 46.6666
63.1100 46.6666
63.1200 20.0000
63.1300 20.0000
63.1400 33.3334
63.1500 80.0000
63.1600 53.3334
63.1700 46.6666
63.1800 66.6666
63.1900 100.0000
63.2000 73.3334
63.2100 113.3334
63.2200 153.3334
63.2300 233.3334
63.2400 306.6666
63.2500 346.6666
63.2600 266.6666
63.2700 233.3334
63.2800 146.6666
63.2900 120.0000
63.3000 140.0000
63.3100 53.3334
63.3200 60.0000
63.3300 53.3334
63.3400 53.3334
63.3500 46.6666
63.3600 80.0000
63.3700 33.3334
63.3800 80.0000
63.3900 126.6666
63.4000 160.0000
63.4100 213.3334
63.4200 200.0000
63.4300 193.3334
63.4400 206.6666
63.4500 253.3334
63.4600 233.3334
63.4700 213.3334
63.4800 153.3334
63.4900 106.6666
63.5000 113.3334
63.5100 60.0000
63.5200 86.6666
63.5300 66.6666
63.5400 60.0000
63.5500 53.3334
63.5600 33.3334
63.5700 33.3334
63.5800 73.3334
63.5900 60.0000
63.6000 53.3334
63.6100 60.0000
63.6200 80.0000
63.6300 86.6666
63.6400 53.3334
63.6500 80.0000
63.6600 66.6666
63.6700 33.3334
63.6800 93.3334
63.6900 40.0000
63.7000 33.3334
63.7100 46.6666
63.7200 40.0000
63.7300 33.3334
63.7400 53.3334
63.7500 66.6666
63.7600 93.3334
63.7700 40.0000
63.7800 20.0000
63.7900 53.3334
63.8000 33.3334
63.8100 33.3334
63.8200 46.6666
63.8300 33.3334
63.8400 40.0000
63.8500 26.6666
63.8600 33.3334
63.8700 13.3334
63.8800 40.0000
63.8900 46.6666
63.9000 20.0000
63.9100 60.0000
63.9200 46.6666
63.9300 66.6666
63.9400 66.6666
63.9500 40.0000
63.9600 53.3334
63.9700 40.0000
63.9800 73.3334
63.9900 46.6666
64.0000 46.6666
64.0100 40.0000
64.0200 66.6666
64.0300 40.0000
64.0400 53.3334
64.0500 26.6666
64.0600 20.0000
64.0700 20.0000
64.0800 40.0000
64.0900 26.6666
64.1000 33.3334
64.1100 20.0000
64.1200 46.6666
64.1300 46.6666
64.1400 60.0000
64.1500 20.0000
64.1600 40.0000
64.1700 20.0000
64.1800 66.6666
64.1900 46.6666
64.2000 60.0000
64.2100 60.0000
64.2200 33.3334
64.2300 26.6666
64.2400 66.6666
64.2500 53.3334
64.2600 53.3334
64.2700 66.6666
64.2800 80.0000
64.2900 80.0000
64.3000 120.0000
64.3100 86.6666
64.3200 100.0000
64.3300 113.3334
64.3400 186.6666
64.3500 193.3334
64.3600 126.6666
64.3700 93.3334
64.3800 93.3334
64.3900 60.0000
64.4000 73.3334
64.4100 180.0000
64.4200 86.6666
64.4300 100.0000
64.4400 160.0000
64.4500 153.3334
64.4600 220.0000
64.4700 273.3334
64.4800 300.0000
64.4900 326.6666
64.5000 400.0000
64.5100 280.0000
64.5200 300.0000
64.5300 173.3334
64.5400 153.3334
64.5500 73.3334
64.5600 53.3334
64.5700 66.6666
64.5800 60.0000
64.5900 46.6666
64.6000 73.3334
64.6100 33.3334
64.6200 33.3334
64.6300 46.6666
64.6400 40.0000
64.6500 20.0000
64.6600 40.0000
64.6700 26.6666
64.6800 13.3334
64.6900 40.0000
64.7000 40.0000
64.7100 33.3334
64.7200 66.6666
64.7300 40.0000
64.7400 40.0000
64.7500 40.0000
64.7600 20.0000
64.7700 40.0000
64.7800 46.6666
64.7900 53.3334
64.8000 46.6666
64.8100 26.6666
64.8200 73.3334
64.8300 33.3334
64.8400 106.6666
64.8500 100.0000
64.8600 80.0000
64.8700 93.3334
64.8800 80.0000
64.8900 60.0000
64.9000 26.6666
64.9100 53.3334
64.9200 40.0000
64.9300 33.3334
64.9400 26.6666
64.9500 33.3334
64.9600 26.6666
64.9700 20.0000
64.9800 26.6666
64.9900 53.3334
65.0000 40.0000
65.0100 53.3334
65.0200 46.6666
65.0300 86.6666
65.0400 93.3334
65.0500 60.0000
65.0600 73.3334
65.0700 93.3334
65.0800 153.3334
65.0900 120.0000
65.1000 126.6666
65.1100 133.3334
65.1200 126.6666
65.1300 133.3334
65.1400 120.0000
65.1500 100.0000
65.1600 80.0000
65.1700 80.0000
65.1800 126.6666
65.1900 86.6666
65.2000 80.0000
65.2100 106.6666
65.2200 113.3334
65.2300 80.0000
65.2400 180.0000
65.2500 80.0000
65.2600 46.6666
65.2700 53.3334
65.2800 40.0000
65.2900 40.0000
65.3000 46.6666
65.3100 40.0000
65.3200 53.3334
65.3300 53.3334
65.3400 73.3334
65.3500 66.6666
65.3600 46.6666
65.3700 80.0000
65.3800 133.3334
65.3900 106.6666
65.4000 146.6666
65.4100 120.0000
65.4200 133.3334
65.4300 153.3334
65.4400 213.3334
65.4500 180.0000
65.4600 126.6666
65.4700 146.6666
65.4800 180.0000
65.4900 153.3334
65.5000 186.6666
65.5100 133.3334
65.5200 120.0000
65.5300 173.3334
65.5400 160.0000
65.5500 193.3334
65.5600 220.0000
65.5700 213.3334
65.5800 133.3334
65.5900 113.3334
65.6000 140.0000
65.6100 106.6666
65.6200 113.3334
65.6300 53.3334
65.6400 53.3334
65.6500 60.0000
65.6600 53.3334
65.6700 60.0000
65.6800 53.3334
65.6900 106.6666
65.7000 86.6666
65.7100 133.3334
65.7200 120.0000
65.7300 140.0000
65.7400 153.3334
65.7500 126.6666
65.7600 146.6666
65.7700 140.0000
65.7800 93.3334
65.7900 80.0000
65.8000 86.6666
65.8100 93.3334
65.8200 53.3334
65.8300 73.3334
65.8400 93.3334
65.8500 66.6666
65.8600 113.3334
65.8700 173.3334
65.8800 140.0000
65.8900 153.3334
65.9000 233.3334
65.9100 300.0000
65.9200 246.6666
65.9300 320.0000
65.9400 413.3334
65.9500 593.3334
65.9600 833.3334
65.9700 1466.6666
65.9800 2066.6666
65.9900 2773.3334
66.0000 3060.0000
66.0100 2913.3334
66.0200 2446.6666
66.0300 1586.6666
66.0400 1166.6666
66.0500 800.0000
66.0600 566.6666
66.0700 393.3334
66.0800 280.0000
66.0900 306.6666
66.1000 240.0000
66.1100 206.6666
66.1200 106.6666
66.1300 113.3334
66.1400 60.0000
66.1500 80.0000
66.1600 46.6666
66.1700 46.6666
66.1800 86.6666
66.1900 46.6666
66.2000 73.3334
66.2100 93.3334
66.2200 53.3334
66.2300 113.3334
66.2400 60.0000
66.2500 33.3334
66.2600 53.3334
66.2700 26.6666
66.2800 26.6666
66.2900 60.0000
66.3000 80.0000
66.3100 86.6666
66.3200 53.3334
66.3300 40.0000
66.3400 40.0000
66.3500 26.6666
66.3600 60.0000
66.3700 33.3334
66.3800 53.3334
66.3900 73.3334
66.4000 33.3334
66.4100 33.3334
66.4200 60.0000
66.4300 26.6666
66.4400 33.3334
66.4500 53.3334
66.4600 33.3334
66.4700 33.3334
66.4800 60.0000
66.4900 46.6666
66.5000 20.0000
66.5100 66.6666
66.5200 26.6666
66.5300 46.6666
66.5400 33.3334
66.5500 53.3334
66.5600 46.6666
66.5700 53.3334
66.5800 53.3334
66.5900 60.0000
66.6000 73.3334
66.6100 66.6666
66.6200 60.0000
66.6300 80.0000
66.6400 53.3334
66.6500 113.3334
66.6600 133.3334
66.6700 80.0000
66.6800 100.0000
66.6900 133.3334
66.7000 146.6666
66.7100 146.6666
66.7200 173.3334
66.7300 166.6666
66.7400 260.0000
66.7500 266.6666
66.7600 226.6666
66.7700 226.6666
66.7800 220.0000
66.7900 253.3334
66.8000 213.3334
66.8100 186.6666
66.8200 186.6666
66.8300 126.6666
66.8400 133.3334
66.8500 113.3334
66.8600 140.0000
66.8700 113.3334
66.8800 86.6666
66.8900 113.3334
66.9000 106.6666
66.9100 93.3334
66.9200 133.3334
66.9300 146.6666
66.9400 180.0000
66.9500 146.6666
66.9600 100.0000
66.9700 126.6666
66.9800 166.6666
66.9900 193.3334
67.0000 173.3334
67.0100 133.3334
67.0200 206.6666
67.0300 193.3334
67.0400 206.6666
67.0500 286.6666
67.0600 220.0000
67.0700 260.0000
67.0800 260.0000
67.0900 193.3334
67.1000 220.0000
67.1100 180.0000
67.1200 200.0000
67.1300 186.6666
67.1400 240.0000
67.1500 213.3334
67.1600 193.3334
67.1700 226.6666
67.1800 260.0000
67.1900 133.3334
67.2000 186.6666
67.2100 200.0000
67.2200 146.6666
67.2300 146.6666
67.2400 133.3334
67.2500 113.3334
67.2600 106.6666
67.2700 126.6666
67.2800 120.0000
67.2900 80.0000
67.3000 100.0000
67.3100 106.6666
67.3200 93.3334
67.3300 53.3334
67.3400 73.3334
67.3500 86.6666
67.3600 80.0000
67.3700 46.6666
67.3800 86.6666
67.3900 100.0000
67.4000 133.3334
67.4100 106.6666
67.4200 166.6666
67.4300 173.3334
67.4400 186.6666
67.4500 200.0000
67.4600 273.3334
67.4700 326.6666
67.4800 333.3334
67.4900 406.6666
67.5000 440.0000
67.5100 413.3334
67.5200 440.0000
67.5300 333.3334
67.5400 346.6666
67.5500 260.0000
67.5600 193.3334
67.5700 186.6666
67.5800 126.6666
67.5900 153.3334
67.6000 113.3334
67.6100 66.6666
67.6200 100.0000
67.6300 113.3334
67.6400 146.6666
67.6500 106.6666
67.6600 113.3334
67.6700 80.0000
67.6800 60.0000
67.6900 93.3334
67.7000 86.6666
67.7100 60.0000
67.7200 53.3334
67.7300 53.3334
67.7400 80.0000
67.7500 40.0000
67.7600 86.6666
67.7700 73.3334
67.7800 60.0000
67.7900 53.3334
67.8000 53.3334
67.8100 60.0000
67.8200 73.3334
67.8300 66.6666
67.8400 53.3334
67.8500 40.0000
67.8600 40.0000
67.8700 80.0000
67.8800 60.0000
67.8900 46.6666
67.9000 60.0000
67.9100 60.0000
67.9200 60.0000
67.9300 93.3334
67.9400 53.3334
67.9500 46.6666
67.9600 40.0000
67.9700 40.0000
67.9800 53.3334
67.9900 33.3334
68.0000 80.0000
68.0100 66.6666
68.0200 66.6666
68.0300 73.3334
68.0400 120.0000
68.0500 86.6666
68.0600 113.3334
68.0700 80.0000
68.0800 80.0000
68.0900 93.3334
68.1000 126.6666
68.1100 80.0000
68.1200 113.3334
68.1300 80.0000
68.1400 126.6666
68.1500 100.0000
68.1600 93.3334
68.1700 106.6666
68.1800 106.6666
68.1900 100.0000
68.2000 80.0000
68.2100 160.0000
68.2200 133.3334
68.2300 93.3334
68.2400 153.3334
68.2500 100.0000
68.2600 93.3334
68.2700 100.0000
68.2800 100.0000
68.2900 86.6666
68.3000 126.6666
68.3100 106.6666
68.3200 66.6666
68.3300 60.0000
68.3400 133.3334
68.3500 140.0000
68.3600 106.6666
68.3700 113.3334
68.3800 66.6666
68.3900 86.6666
68.4000 126.6666
68.4100 80.0000
68.4200 80.0000
68.4300 73.3334
68.4400 53.3334
68.4500 53.3334
68.4600 66.6666
68.4700 66.6666
68.4800 60.0000
68.4900 40.0000
68.5000 80.0000
68.5100 53.3334
68.5200 40.0000
68.5300 60.0000
68.5400 66.6666
68.5500 80.0000
68.5600 66.6666
68.5700 66.6666
68.5800 100.0000
68.5900 60.0000
68.6000 86.6666
68.6100 73.3334
68.6200 106.6666
68.6300 106.6666
68.6400 200.0000
68.6500 220.0000
68.6600 173.3334
68.6700 226.6666
68.6800 333.3334
68.6900 240.0000
68.7000 253.3334
68.7100 206.6666
68.7200 286.6666
68.7300 453.3334
68.7400 460.0000
68.7500 720.0000
68.7600 800.0000
68.7700 740.0000
68.7800 406.6666
68.7900 353.3334
68.8000 200.0000
68.8100 160.0000
68.8200 113.3334
68.8300 106.6666
68.8400 120.0000
68.8500 80.0000
68.8600 80.0000
68.8700 53.3334
68.8800 46.6666
68.8900 113.3334
68.9000 80.0000
68.9100 73.3334
68.9200 100.0000
68.9300 53.3334
68.9400 73.3334
68.9500 113.3334
68.9600 53.3334
68.9700 73.3334
68.9800 100.0000
68.9900 73.3334
69.0000 106.6666
69.0100 73.3334
69.0200 60.0000
69.0300 66.6666
69.0400 86.6666
69.0500 80.0000
69.0600 80.0000
69.0700 66.6666
69.0800 80.0000
69.0900 60.0000
69.1000 113.3334
69.1100 73.3334
69.1200 80.0000
69.1300 46.6666
69.1400 73.3334
69.1500 73.3334
69.1600 73.3334
69.1700 113.3334
69.1800 60.0000
69.1900 66.6666
69.2000 53.3334
69.2100 40.0000
69.2200 46.6666
69.2300 40.0000
69.2400 73.3334
69.2500 53.3334
69.2600 40.0000
69.2700 80.0000
69.2800 86.6666
69.2900 80.0000
69.3000 86.6666
69.3100 60.0000
69.3200 26.6666
69.3300 53.3334
69.3400 53.3334
69.3500 46.6666
69.3600 40.0000
69.3700 60.0000
69.3800 86.6666
69.3900 46.6666
69.4000 20.0000
69.4100 46.6666
69.4200 73.3334
69.4300 53.3334
69.4400 60.0000
69.4500 20.0000
69.4600 60.0000
69.4700 40.0000
69.4800 53.3334
69.4900 53.3334
69.5000 73.3334
69.5100 73.3334
69.5200 53.3334
69.5300 60.0000
69.5400 93.3334
69.5500 60.0000
69.5600 66.6666
69.5700 60.0000
69.5800 100.0000
69.5900 53.3334
69.6000 73.3334
69.6100 26.6666
69.6200 53.3334
69.6300 60.0000
69.6400 73.3334
69.6500 73.3334
69.6600 60.0000
69.6700 60.0000
69.6800 60.0000
69.6900 66.6666
69.7000 113.3334
69.7100 73.3334
69.7200 80.0000
69.7300 53.3334
69.7400 66.6666
69.7500 86.6666
69.7600 86.6666
69.7700 73.3334
69.7800 46.6666
69.7900 80.0000
69.8000 106.6666
69.8100 60.0000
69.8200 80.0000
69.8300 80.0000
69.8400 86.6666
69.8500 40.0000
69.8600 46.6666
69.8700 46.6666
69.8800 40.0000
69.8900 26.6666
69.9000 33.3334
69.9100 40.0000
69.9200 40.0000
69.9300 53.3334
69.9400 66.6666
69.9500 46.6666
69.9600 26.6666
69.9700 46.6666
69.9800 46.6666
69.9900 73.3334
70.0000 86.6666
70.0100 53.3334
70.0200 46.6666
70.0300 66.6666
70.0400 66.6666
70.0500 60.0000
70.0600 26.6666
70.0700 60.0000
70.0800 60.0000
70.0900 66.6666
70.1000 66.6666
70.1100 33.3334
70.1200 40.0000
70.1300 46.6666
70.1400 86.6666
70.1500 73.3334
70.1600 66.6666
70.1700 106.6666
70.1800 113.3334
70.1900 113.3334
70.2000 86.6666
70.2100 93.3334
70.2200 86.6666
70.2300 133.3334
70.2400 100.0000
70.2500 60.0000
70.2600 86.6666
70.2700 126.6666
70.2800 113.3334
70.2900 140.0000
70.3000 66.6666
70.3100 100.0000
70.3200 93.3334
70.3300 100.0000
70.3400 100.0000
70.3500 73.3334
70.3600 86.6666
70.3700 93.3334
70.3800 73.3334
70.3900 66.6666
70.4000 60.0000
70.4100 100.0000
70.4200 86.6666
70.4300 140.0000
70.4400 113.3334
70.4500 100.0000
70.4600 106.6666
70.4700 93.3334
70.4800 100.0000
70.4900 113.3334
70.5000 113.3334
70.5100 166.6666
70.5200 173.3334
70.5300 226.6666
70.5400 286.6666
70.5500 386.6666
70.5600 540.0000
70.5700 713.3334
70.5800 793.3334
70.5900 1106.6666
70.6000 1020.0000
70.6100 1140.0000
70.6200 846.6666
70.6300 713.3334
70.6400 653.3334
70.6500 486.6666
70.6600 413.3334
70.6700 453.3334
70.6800 246.6666
70.6900 206.6666
70.7000 126.6666
70.7100 126.6666
70.7200 106.6666
70.7300 46.6666
70.7400 66.6666
70.7500 106.6666
70.7600 66.6666
70.7700 86.6666
70.7800 100.0000
70.7900 80.0000
70.8000 106.6666
70.8100 80.0000
70.8200 113.3334
70.8300 126.6666
70.8400 200.0000
70.8500 126.6666
70.8600 140.0000
70.8700 146.6666
70.8800 126.6666
70.8900 93.3334
70.9000 53.3334
70.9100 80.0000
70.9200 46.6666
70.9300 40.0000
70.9400 6.6666
70.9500 80.0000
70.9600 33.3334
70.9700 73.3334
70.9800 93.3334
70.9900 80.0000
71.0000 53.3334
71.0100 73.3334
71.0200 73.3334
71.0300 73.3334
71.0400 80.0000
71.0500 66.6666
71.0600 80.0000
71.0700 66.6666
71.0800 40.0000
71.0900 66.6666
71.1000 53.3334
71.1100 120.0000
71.1200 100.0000
71.1300 86.6666
71.1400 100.0000
71.1500 133.3334
71.1600 146.6666
71.1700 193.3334
71.1800 106.6666
71.1900 100.0000
71.2000 173.3334
71.2100 200.0000
71.2200 206.6666
71.2300 200.0000
71.2400 220.0000
71.2500 233.3334
71.2600 226.6666
71.2700 226.6666
71.2800 233.3334
71.2900 200.0000
71.3000 200.0000
71.3100 220.0000
71.3200 153.3334
71.3300 166.6666
71.3400 166.6666
71.3500 226.6666
71.3600 126.6666
71.3700 146.6666
71.3800 126.6666
71.3900 153.3334
71.4000 126.6666
71.4100 106.6666
71.4200 113.3334
71.4300 93.3334
71.4400 100.0000
71.4500 66.6666
71.4600 100.0000
71.4700 86.6666
71.4800 93.3334
71.4900 66.6666
71.5000 13.3334
71.5100 86.6666
71.5200 73.3334
71.5300 106.6666
71.5400 93.3334
71.5500 73.3334
71.5600 80.0000
71.5700 66.6666
71.5800 73.3334
71.5900 100.0000
71.6000 133.3334
71.6100 113.3334
71.6200 146.6666
71.6300 126.6666
71.6400 140.0000
71.6500 180.0000
71.6600 160.0000
71.6700 173.3334
71.6800 173.3334
71.6900 193.3334
71.7000 173.3334
71.7100 320.0000
71.7200 413.3334
71.7300 540.0000
71.7400 753.3334
71.7500 846.6666
71.7600 1020.0000
71.7700 1040.0000
71.7800 933.3334
71.7900 660.0000
71.8000 486.6666
71.8100 300.0000
71.8200 280.0000
71.8300 193.3334
71.8400 180.0000
71.8500 113.3334
71.8600 86.6666
71.8700 113.3334
71.8800 86.6666
71.8900 66.6666
71.9000 73.3334
71.9100 66.6666
71.9200 113.3334
71.9300 86.6666
71.9400 66.6666
71.9500 93.3334
71.9600 26.6666
71.9700 26.6666
71.9800 86.6666
71.9900 46.6666
72.0000 40.0000
72.0100 73.3334
72.0200 60.0000
72.0300 60.0000
72.0400 46.6666
72.0500 93.3334
72.0600 53.3334
72.0700 60.0000
72.0800 53.3334
72.0900 66.6666
72.1000 40.0000
72.1100 46.6666
72.1200 60.0000
72.1300 53.3334
72.1400 66.6666
72.1500 66.6666
72.1600 86.6666
72.1700 106.6666
72.1800 60.0000
72.1900 53.3334
72.2000 66.6666
72.2100 93.3334
72.2200 53.3334
72.2300 60.0000
72.2400 53.3334
72.2500 53.3334
72.2600 73.3334
72.2700 33.3334
72.2800 93.3334
72.2900 66.6666
72.3000 80.0000
72.3100 73.3334
72.3200 86.6666
72.3300 66.6666
72.3400 73.3334
72.3500 106.6666
72.3600 53.3334
72.3700 53.3334
72.3800 40.0000
72.3900 46.6666
72.4000 46.6666
72.4100 46.6666
72.4200 40.0000
72.4300 40.0000
72.4400 60.0000
72.4500 53.3334
72.4600 53.3334
72.4700 53.3334
72.4800 53.3334
72.4900 60.0000
72.5000 46.6666
72.5100 46.6666
72.5200 60.0000
72.5300 60.0000
72.5400 53.3334
72.5500 53.3334
72.5600 60.0000
72.5700 60.0000
72.5800 66.6666
72.5900 60.0000
72.6000 53.3334
72.6100 73.3334
72.6200 73.3334
72.6300 60.0000
72.6400 53.3334
72.6500 53.3334
72.6600 53.3334
72.6700 53.3334
72.6800 86.6666
72.6900 93.3334
72.7000 53.3334
72.7100 120.0000
72.7200 160.0000
72.7300 100.0000
72.7400 126.6666
72.7500 133.3334
72.7600 140.0000
72.7700 140.0000
72.7800 120.0000
72.7900 140.0000
72.8000 140.0000
72.8100 146.6666
72.8200 86.6666
72.8300 140.0000
72.8400 86.6666
72.8500 113.3334
72.8600 133.3334
72.8700 146.6666
72.8800 160.0000
72.8900 113.3334
72.9000 153.3334
72.9100 220.0000
72.9200 220.0000
72.9300 200.0000
72.9400 246.6666
72.9500 240.0000
72.9600 220.0000
72.9700 180.0000
72.9800 133.3334
72.9900 86.6666
73.0000 126.6666
73.0100 126.6666
73.0200 80.0000
73.0300 106.6666
73.0400 73.3334
73.0500 80.0000
73.0600 146.6666
73.0700 73.3334
73.0800 153.3334
73.0900 160.0000
73.1000 220.0000
73.1100 266.6666
73.1200 233.3334
73.1300 186.6666
73.1400 133.3334
73.1500 173.3334
73.1600 153.3334
73.1700 80.0000
73.1800 80.0000
73.1900 53.3334
73.2000 133.3334
73.2100 93.3334
73.2200 106.6666
73.2300 46.6666
73.2400 133.3334
73.2500 106.6666
73.2600 100.0000
73.2700 213.3334
73.2800 233.3334
73.2900 246.6666
73.3000 280.0000
73.3100 306.6666
73.3200 406.6666
73.3300 580.0000
73.3400 793.3334
73.3500 640.0000
73.3600 480.0000
73.3700 340.0000
73.3800 186.6666
73.3900 220.0000
73.4000 120.0000
73.4100 73.3334
73.4200 106.6666
73.4300 86.6666
73.4400 73.3334
73.4500 73.3334
73.4600 60.0000
73.4700 66.6666
73.4800 80.0000
73.4900 53.3334
73.5000 66.6666
73.5100 93.3334
73.5200 73.3334
73.5300 106.6666
73.5400 86.6666
73.5500 126.6666
73.5600 133.3334
73.5700 73.3334
73.5800 93.3334
73.5900 146.6666
73.6000 193.3334
73.6100 166.6666
73.6200 160.0000
73.6300 200.0000
73.6400 240.0000
73.6500 220.0000
73.6600 246.6666
73.6700 213.3334
73.6800 153.3334
73.6900 140.0000
73.7000 106.6666
73.7100 126.6666
73.7200 93.3334
73.7300 140.0000
73.7400 140.0000
73.7500 100.0000
73.7600 46.6666
73.7700 80.0000
73.7800 93.3334
73.7900 80.0000
73.8000 73.3334
73.8100 73.3334
73.8200 93.3334
73.8300 160.0000
73.8400 126.6666
73.8500 206.6666
73.8600 220.0000
73.8700 293.3334
73.8800 333.3334
73.8900 413.3334
73.9000 413.3334
73.9100 366.6666
73.9200 386.6666
73.9300 240.0000
73.9400 193.3334
73.9500 260.0000
73.9600 146.6666
73.9700 153.3334
73.9800 133.3334
73.9900 113.3334
74.0000 106.6666
74.0100 113.3334
74.0200 126.6666
74.0300 93.3334
74.0400 140.0000
74.0500 220.0000
74.0600 206.6666
74.0700 246.6666
74.0800 386.6666
74.0900 480.0000
74.1000 506.6666
74.1100 506.6666
74.1200 466.6666
74.1300 420.0000
74.1400 246.6666
74.1500 166.6666
74.1600 200.0000
74.1700 140.0000
74.1800 120.0000
74.1900 120.0000
74.2000 126.6666
74.2100 160.0000
74.2200 200.0000
74.2300 146.6666
74.2400 193.3334
74.2500 133.3334
74.2600 153.3334
74.2700 206.6666
74.2800 193.3334
74.2900 293.3334
74.3000 313.3334
74.3100 273.3334
74.3200 326.6666
74.3300 446.6666
74.3400 346.6666
74.3500 213.3334
74.3600 240.0000
74.3700 186.6666
74.3800 193.3334
74.3900 140.0000
74.4000 113.3334
74.4100 93.3334
74.4200 100.0000
74.4300 120.0000
74.4400 86.6666
74.4500 73.3334
74.4600 46.6666
74.4700 46.6666
74.4800 100.0000
74.4900 80.0000
74.5000 106.6666
74.5100 26.6666
74.5200 60.0000
74.5300 80.0000
74.5400 60.0000
74.5500 73.3334
74.5600 73.3334
74.5700 73.3334
74.5800 46.6666
74.5900 66.6666
74.6000 93.3334
74.6100 66.6666
74.6200 86.6666
74.6300 106.6666
74.6400 106.6666
74.6500 80.0000
74.6600 53.3334
74.6700 66.6666
74.6800 73.3334
74.6900 100.0000
74.7000 73.3334
74.7100 40.0000
74.7200 53.3334
74.7300 40.0000
74.7400 73.3334
74.7500 20.0000
74.7600 86.6666
74.7700 33.3334
74.7800 40.0000
74.7900 73.3334
74.8000 73.3334
74.8100 60.0000
74.8200 53.3334
74.8300 93.3334
74.8400 53.3334
74.8500 46.6666
74.8600 66.6666
74.8700 46.6666
74.8800 100.0000
74.8900 60.0000
74.9000 60.0000
74.9100 86.6666
74.9200 53.3334
74.9300 80.0000
74.9400 53.3334
74.9500 100.0000
74.9600 53.3334
74.9700 66.6666
74.9800 40.0000
74.9900 33.3334
75.0000 53.3334
75.0100 73.3334
75.0200 73.3334
75.0300 60.0000
75.0400 53.3334
75.0500 46.6666
75.0600 66.6666
75.0700 53.3334
75.0800 26.6666
75.0900 33.3334
75.1000 60.0000
75.1100 93.3334
75.1200 20.0000
75.1300 73.3334
75.1400 26.6666
75.1500 60.0000
75.1600 86.6666
75.1700 66.6666
75.1800 66.6666
75.1900 40.0000
75.2000 40.0000
75.2100 33.3334
75.2200 53.3334
75.2300 40.0000
75.2400 26.6666
75.2500 46.6666
75.2600 53.3334
75.2700 53.3334
75.2800 60.0000
75.2900 26.6666
75.3000 80.0000
75.3100 66.6666
75.3200 53.3334
75.3300 60.0000
75.3400 33.3334
75.3500 66.6666
75.3600 60.0000
75.3700 106.6666
75.3800 66.6666
75.3900 93.3334
75.4000 106.6666
75.4100 106.6666
75.4200 46.6666
75.4300 33.3334
75.4400 46.6666
75.4500 66.6666
75.4600 66.6666
75.4700 20.0000
75.4800 46.6666
75.4900 66.6666
75.5000 60.0000
75.5100 40.0000
75.5200 73.3334
75.5300 60.0000
75.5400 60.0000
75.5500 86.6666
75.5600 80.0000
75.5700 80.0000
75.5800 113.3334
75.5900 113.3334
75.6000 93.3334
75.6100 93.3334
75.6200 120.0000
75.6300 66.6666
75.6400 80.0000
75.6500 80.0000
75.6600 80.0000
75.6700 60.0000
75.6800 66.6666
75.6900 80.0000
75.7000 86.6666
75.7100 80.0000
75.7200 93.3334
75.7300 106.6666
75.7400 66.6666
75.7500 73.3334
75.7600 93.3334
75.7700 120.0000
75.7800 66.6666
75.7900 73.3334
75.8000 33.3334
75.8100 53.3334
75.8200 100.0000
75.8300 106.6666
75.8400 73.3334
75.8500 73.3334
75.8600 86.6666
75.8700 86.6666
75.8800 80.0000
75.8900 146.6666
75.9000 106.6666
75.9100 100.0000
75.9200 120.0000
75.9300 166.6666
75.9400 93.3334
75.9500 160.0000
75.9600 106.6666
75.9700 133.3334
75.9800 120.0000
75.9900 73.3334
76.0000 33.3334
76.0100 80.0000
76.0200 93.3334
76.0300 106.6666
76.0400 66.6666
76.0500 100.0000
76.0600 66.6666
76.0700 60.0000
76.0800 46.6666
76.0900 33.3334
76.1000 66.6666
76.1100 93.3334
76.1200 106.6666
76.1300 73.3334
76.1400 46.6666
76.1500 100.0000
76.1600 40.0000
76.1700 93.3334
76.1800 100.0000
76.1900 80.0000
76.2000 60.0000
76.2100 113.3334
76.2200 86.6666
76.2300 66.6666
76.2400 33.3334
76.2500 66.6666
76.2600 60.0000
76.2700 60.0000
76.2800 53.3334
76.2900 53.3334
76.3000 40.0000
76.3100 66.6666
76.3200 66.6666
76.3300 60.0000
76.3400 60.0000
76.3500 60.0000
76.3600 60.0000
76.3700 86.6666
76.3800 60.0000
76.3900 100.0000
76.4000 53.3334
76.4100 20.0000
76.4200 80.0000
76.4300 46.6666
76.4400 53.3334
76.4500 86.6666
76.4600 73.3334
76.4700 60.0000
76.4800 66.6666
76.4900 100.0000
76.5000 80.0000
76.5100 73.3334
76.5200 140.0000
76.5300 113.3334
76.5400 93.3334
76.5500 93.3334
76.5600 100.0000
76.5700 153.3334
76.5800 153.3334
76.5900 173.3334
76.6000 140.0000
76.6100 133.3334
76.6200 86.6666
76.6300 60.0000
76.6400 66.6666
76.6500 60.0000
76.6600 60.0000
76.6700 86.6666
76.6800 60.0000
76.6900 86.6666
76.7000 60.0000
76.7100 40.0000
76.7200 86.6666
76.7300 40.0000
76.7400 33.3334
76.7500 40.0000
76.7600 40.0000
76.7700 26.6666
76.7800 60.0000
76.7900 73.3334
76.8000 60.0000
76.8100 46.6666
76.8200 100.0000
76.8300 33.3334
76.8400 33.3334
76.8500 40.0000
76.8600 46.6666
76.8700 46.6666
76.8800 66.6666
76.8900 46.6666
76.9000 53.3334
76.9100 40.0000
76.9200 80.0000
76.9300 60.0000
76.9400 100.0000
76.9500 60.0000
76.9600 66.6666
76.9700 33.3334
76.9800 73.3334
76.9900 60.0000
77.0000 86.6666
77.0100 46.6666
77.0200 53.3334
77.0300 66.6666
77.0400 80.0000
77.0500 113.3334
77.0600 86.6666
77.0700 106.6666
77.0800 106.6666
77.0900 46.6666
77.1000 80.0000
77.1100 60.0000
77.1200 53.3334
77.1300 100.0000
77.1400 53.3334
77.1500 53.3334
77.1600 73.3334
77.1700 106.6666
77.1800 73.3334
77.1900 53.3334
77.2000 53.3334
77.2100 86.6666
77.2200 93.3334
77.2300 106.6666
77.2400 73.3334
77.2500 106.6666
77.2600 86.6666
77.2700 133.3334
77.2800 186.6666
77.2900 146.6666
77.3000 166.6666
77.3100 186.6666
77.3200 226.6666
77.3300 153.3334
77.3400 146.6666
77.3500 86.6666
77.3600 93.3334
77.3700 100.0000
77.3800 73.3334
77.3900 86.6666
77.4000 53.3334
77.4100 46.6666
77.4200 73.3334
77.4300 53.3334
77.4400 60.0000
77.4500 73.3334
77.4600 33.3334
77.4700 86.6666
77.4800 60.0000
77.4900 53.3334
77.5000 86.6666
77.5100 93.3334
77.5200 40.0000
77.5300 46.6666
77.5400 106.6666
77.5500 146.6666
77.5600 106.6666
77.5700 120.0000
77.5800 140.0000
77.5900 186.6666
77.6000 200.0000
77.6100 140.0000
77.6200 133.3334
77.6300 106.6666
77.6400 113.3334
77.6500 106.6666
77.6600 93.3334
77.6700 93.3334
77.6800 73.3334
77.6900 86.6666
77.7000 126.6666
77.7100 66.6666
77.7200 66.6666
77.7300 73.3334
77.7400 80.0000
77.7500 86.6666
77.7600 60.0000
77.7700 113.3334
77.7800 73.3334
77.7900 33.3334
77.8000 40.0000
77.8100 46.6666
77.8200 100.0000
77.8300 80.0000
77.8400 46.6666
77.8500 106.6666
77.8600 133.3334
77.8700 173.3334
77.8800 126.6666
77.8900 106.6666
77.9000 80.0000
77.9100 100.0000
77.9200 60.0000
77.9300 53.3334
77.9400 46.6666
77.9500 80.0000
77.9600 40.0000
77.9700 26.6666
77.9800 46.6666
77.9900 33.3334
78.0000 46.6666
78.0100 86.6666
78.0200 40.0000
78.0300 20.0000
78.0400 46.6666
78.0500 26.6666
78.0600 33.3334
78.0700 20.0000
78.0800 53.3334
78.0900 40.0000
78.1000 60.0000
78.1100 33.3334
78.1200 20.0000
78.1300 46.6666
78.1400 26.6666
78.1500 53.3334
78.1600 80.0000
78.1700 53.3334
78.1800 53.3334
78.1900 80.0000
78.2000 40.0000
78.2100 113.3334
78.2200 80.0000
78.2300 113.3334
78.2400 106.6666
78.2500 80.0000
78.2600 60.0000
78.2700 33.3334
78.2800 80.0000
78.2900 120.0000
78.3000 46.6666
78.3100 46.6666
78.3200 53.3334
78.3300 60.0000
78.3400 66.6666
78.3500 53.3334
78.3600 46.6666
78.3700 53.3334
78.3800 66.6666
78.3900 60.0000
78.4000 33.3334
78.4100 60.0000
78.4200 40.0000
78.4300 46.6666
78.4400 33.3334
78.4500 46.6666
78.4600 66.6666
78.4700 20.0000
78.4800 46.6666
78.4900 53.3334
78.5000 86.6666
78.5100 73.3334
78.5200 40.0000
78.5300 46.6666
78.5400 53.3334
78.5500 46.6666
78.5600 33.3334
78.5700 60.0000
78.5800 40.0000
78.5900 33.3334
78.6000 40.0000
78.6100 53.3334
78.6200 26.6666
78.6300 40.0000
78.6400 73.3334
78.6500 60.0000
78.6600 66.6666
78.6700 53.3334
78.6800 93.3334
78.6900 80.0000
78.7000 53.3334
78.7100 73.3334
78.7200 53.3334
78.7300 60.0000
78.7400 33.3334
78.7500 73.3334
78.7600 66.6666
78.7700 106.6666
78.7800 106.6666
78.7900 126.6666
78.8000 86.6666
78.8100 126.6666
78.8200 93.3334
78.8300 80.0000
78.8400 66.6666
78.8500 46.6666
78.8600 40.0000
78.8700 46.6666
78.8800 86.6666
78.8900 53.3334
78.9000 93.3334
78.9100 40.0000
78.9200 80.0000
78.9300 46.6666
78.9400 80.0000
78.9500 33.3334
78.9600 86.6666
78.9700 46.6666
78.9800 53.3334
78.9900 60.0000
79.0000 33.3334
79.0100 46.6666
79.0200 46.6666
79.0300 33.3334
79.0400 60.0000
79.0500 46.6666
79.0600 40.0000
79.0700 53.3334
79.0800 46.6666
79.0900 53.3334
79.1000 53.3334
79.1100 40.0000
79.1200 66.6666
79.1300 86.6666
79.1400 73.3334
79.1500 60.0000
79.1600 73.3334
79.1700 106.6666
79.1800 46.6666
79.1900 73.3334
79.2000 106.6666
79.2100 66.6666
79.2200 86.6666
79.2300 60.0000
79.2400 100.0000
79.2500 80.0000
79.2600 133.3334
79.2700 86.6666
79.2800 86.6666
79.2900 106.6666
79.3000 93.3334
79.3100 86.6666
79.3200 100.0000
79.3300 73.3334
79.3400 40.0000
79.3500 93.3334
79.3600 86.6666
79.3700 93.3334
79.3800 100.0000
79.3900 120.0000
79.4000 93.3334
79.4100 73.3334
79.4200 80.0000
79.4300 86.6666
79.4400 100.0000
79.4500 86.6666
79.4600 73.3334
79.4700 53.3334
79.4800 113.3334
79.4900 106.6666
79.5000 100.0000
79.5100 86.6666
79.5200 166.6666
79.5300 126.6666
79.5400 180.0000
79.5500 120.0000
79.5600 133.3334
79.5700 180.0000
79.5800 173.3334
79.5900 126.6666
79.6000 100.0000
79.6100 140.0000
79.6200 93.3334
79.6300 120.0000
79.6400 106.6666
79.6500 133.3334
79.6600 120.0000
79.6700 106.6666
79.6800 93.3334
79.6900 120.0000
79.7000 93.3334
79.7100 120.0000
79.7200 126.6666
79.7300 133.3334
79.7400 86.6666
79.7500 93.3334
79.7600 106.6666
79.7700 73.3334
79.7800 120.0000
79.7900 133.3334
79.8000 140.0000
79.8100 106.6666
79.8200 120.0000
79.8300 146.6666
79.8400 133.3334
79.8500 120.0000
79.8600 173.3334
79.8700 106.6666
79.8800 46.6666
79.8900 53.3334
79.9000 73.3334
79.9100 46.6666
79.9200 46.6666
79.9300 60.0000
79.9400 66.6666
79.9500 53.3334
79.9600 73.3334
79.9700 80.0000
79.9800 100.0000
79.9900 153.3334
80.0000 133.3334